Data from VictorNaph_Absorbance__5__00015.txt Node

Date: Thu Oct 10 15:47:08 EDT 2024
User: earladmin
Spectrometer: FLCH01037
Trigger mode: 0
Integration Time (sec): 1.000000E-1
Scans to average: 5
Electric dark correction enabled: true
Nonlinearity correction enabled: false
Boxcar width: 2
XAxis mode: Wavelengths
Number of Pixels in Spectrum: 2048
>>>>>Begin Spectral Data<<<<<
178.246	0.07
178.631	0.2
179.016	0.28
179.401	0.53
179.785	0.08
180.17	-0.71
180.554	-0
180.939	-0.12
181.323	0.39
181.708	0.05
182.092	-0
182.477	0.39
182.861	0.87
183.245	-0.19
183.63	0.27
184.014	-0
184.398	-0.33
184.782	-0.03
185.167	0.11
185.551	-0.21
185.935	0.25
186.319	-0.05
186.703	-0.14
187.087	-0.08
187.471	-0
187.855	-0.62
188.238	-0.4
188.622	0.95
189.006	-0
189.39	-0.32
189.774	-0.15
190.157	0.53
190.541	-0.48
190.925	0.2
191.308	0.16
191.692	0.39
192.075	0.39
192.459	-0.94
192.842	0
193.226	-0
193.609	-0
193.992	0.1
194.376	-0.07
194.759	0.33
195.142	-0.03
195.525	0.52
195.909	-0
196.292	0.08
196.675	-0
197.058	0.03
197.441	-0
197.824	0.06
198.207	1
198.59	0
198.973	0.03
199.356	0.11
199.738	0.17
200.121	0.16
200.504	0.26
200.887	-0
201.269	-0.12
201.652	-0
202.035	-0.07
202.417	0.17
202.8	-0
203.182	-0.15
203.565	0.24
203.947	-0
204.329	0.21
204.712	0.25
205.094	-0
205.476	0
205.859	-0.21
206.241	0.32
206.623	-0.05
207.005	0.12
207.387	0.15
207.769	-0.6
208.151	-0
208.533	-0
208.915	-0.17
209.297	0.21
209.679	-0.04
210.061	0.35
210.443	0.3
210.825	-0
211.206	-0
211.588	-0
211.97	0.66
212.351	0.04
212.733	0.51
213.115	0.3
213.496	0.12
213.878	0.29
214.259	-0.4
214.641	0.14
215.022	-0
215.403	0.61
215.785	0.38
216.166	-0.62
216.547	0.39
216.928	-0
217.31	-0
217.691	0.42
218.072	-0.03
218.453	-0
218.834	-0.91
219.215	0.15
219.596	-0
219.977	0.97
220.358	-0.29
220.739	0.34
221.119	-0.22
221.5	-0.89
221.881	-0
222.262	0.08
222.642	0.17
223.023	-0
223.403	-0.41
223.784	0.12
224.165	0.13
224.545	-0.26
224.926	-0
225.306	-0.23
225.686	-0.3
226.067	-0.49
226.447	-0.15
226.827	-0.03
227.207	-0.5
227.588	-0
227.968	-0
228.348	-0.58
228.728	-0.38
229.108	-1.2
229.488	-0.76
229.868	-2.33
230.248	-1.14
230.628	-1.02
231.008	-2.37
231.388	-0
231.767	-1.09
232.147	-0
232.527	-1.02
232.907	-1.44
233.286	-1.17
233.666	-1.22
234.046	-0
234.425	-1.09
234.805	-0.85
235.184	-1.15
235.564	-0.97
235.943	-1.04
236.322	-1.25
236.702	-0
237.081	-1.59
237.46	-1.12
237.839	-1.28
238.219	-1.17
238.598	-1.04
238.977	-0.95
239.356	-1.19
239.735	-1.19
240.114	-0.98
240.493	-0.88
240.872	-1.33
241.251	-0.73
241.629	-1.04
242.008	-0.54
242.387	-0.7
242.766	-0.85
243.145	-1.35
243.523	-1.21
243.902	-0.77
244.28	-0.97
244.659	-1.49
245.037	-0.91
245.416	-0.86
245.794	-0.78
246.173	-0.91
246.551	-0.82
246.93	-0.56
247.308	-0.71
247.686	-0.83
248.064	-0.71
248.442	-0.57
248.821	-0.43
249.199	-0.58
249.577	-0.47
249.955	-0.44
250.333	-0.43
250.711	-0.62
251.089	-0.37
251.467	-0.4
251.844	-0.39
252.222	-0.24
252.6	-0.68
252.978	-0.24
253.356	-0.35
253.733	-0.37
254.111	-0.13
254.488	-0.12
254.866	-0.24
255.243	-0.06
255.621	-0.11
255.998	-0.04
256.376	-0.09
256.753	0.03
257.13	-0.08
257.508	0.05
257.885	0.06
258.262	-0
258.639	0.07
259.017	0.07
259.394	0.06
259.771	0.22
260.148	0.23
260.525	0.24
260.902	0.31
261.279	0.27
261.656	0.28
262.032	0.45
262.409	0.3
262.786	0.37
263.163	0.36
263.539	0.56
263.916	0.64
264.293	0.6
264.669	0.54
265.046	0.52
265.422	0.56
265.799	0.69
266.175	0.54
266.552	0.7
266.928	0.7
267.304	0.65
267.681	0.59
268.057	0.55
268.433	0.6
268.809	0.75
269.185	0.78
269.561	0.73
269.937	0.69
270.313	0.75
270.689	0.93
271.065	0.8
271.441	0.79
271.817	0.92
272.193	1.03
272.569	0.72
272.945	0.87
273.32	1.17
273.696	1.01
274.072	0.77
274.447	1
274.823	1
275.198	1
275.574	0.83
275.949	0.78
276.325	0.8
276.7	0.7
277.075	0.74
277.451	0.76
277.826	0.66
278.201	0.79
278.576	0.63
278.951	0.61
279.326	0.58
279.702	0.63
280.077	0.64
280.452	0.69
280.827	0.66
281.201	0.7
281.576	0.69
281.951	0.73
282.326	0.77
282.701	0.72
283.075	0.75
283.45	0.75
283.825	0.78
284.199	0.79
284.574	0.74
284.949	0.79
285.323	0.72
285.697	0.75
286.072	0.73
286.446	0.66
286.821	0.57
287.195	0.55
287.569	0.49
287.943	0.4
288.318	0.34
288.692	0.28
289.066	0.25
289.44	0.2
289.814	0.17
290.188	0.12
290.562	0.1
290.936	0.07
291.31	0.08
291.684	0.03
292.057	0.05
292.431	-0
292.805	-0
293.179	-0
293.552	-0.01
293.926	0
294.299	-0.01
294.673	-0.02
295.046	-0.01
295.42	0.01
295.793	-0.02
296.167	0
296.54	-0.02
296.913	-0
297.287	-0.02
297.66	0.01
298.033	-0.01
298.406	0.01
298.779	0.01
299.152	0.01
299.525	-0
299.898	0.01
300.271	-0.01
300.644	-0.02
301.017	0
301.39	0
301.763	-0.02
302.136	-0.01
302.508	-0
302.881	-0
303.254	-0
303.626	-0
303.999	0.02
304.371	0
304.744	-0.01
305.116	-0.01
305.489	-0.02
305.861	-0.02
306.233	-0.01
306.606	-0
306.978	-0.01
307.35	-0.01
307.722	-0.01
308.095	0.02
308.467	0.01
308.839	0.02
309.211	0.01
309.583	0.02
309.955	0
310.327	0.02
310.698	-0.01
311.07	-0.01
311.442	-0
311.814	-0.01
312.185	-0.03
312.557	-0.02
312.929	-0.02
313.3	-0.03
313.672	-0.03
314.043	-0.02
314.415	-0.03
314.786	-0.02
315.158	-0.04
315.529	-0.02
315.9	-0.03
316.272	-0.02
316.643	-0.03
317.014	-0.04
317.385	-0.03
317.756	-0.02
318.127	-0.05
318.499	-0.05
318.87	-0.03
319.24	-0.05
319.611	-0.03
319.982	-0.03
320.353	-0.04
320.724	-0.03
321.095	-0.01
321.465	-0.03
321.836	-0.04
322.207	-0.03
322.577	-0.05
322.948	-0.06
323.318	-0.04
323.689	-0.03
324.059	-0.03
324.43	-0.03
324.8	-0.02
325.171	-0.03
325.541	-0.04
325.911	-0.02
326.281	-0.03
326.651	-0.02
327.022	-0.03
327.392	-0.04
327.762	-0.01
328.132	-0.03
328.502	-0.01
328.872	-0.03
329.242	-0.02
329.611	-0.01
329.981	-0.02
330.351	-0.02
330.721	-0.03
331.09	-0.03
331.46	-0.02
331.83	-0.04
332.199	-0.03
332.569	-0.02
332.938	-0.02
333.308	-0.04
333.677	-0.02
334.047	-0.04
334.416	-0.03
334.785	-0.02
335.154	-0.01
335.524	-0.04
335.893	-0.02
336.262	-0
336.631	-0.02
337	-0.01
337.369	-0.03
337.738	-0.03
338.107	-0.02
338.476	-0.02
338.845	-0.02
339.214	-0.02
339.582	-0.04
339.951	-0.02
340.32	-0.03
340.689	-0.02
341.057	-0.03
341.426	-0.02
341.794	-0.02
342.163	-0.03
342.531	-0.02
342.9	-0.04
343.268	-0.02
343.636	-0.02
344.005	-0.03
344.373	0
344.741	-0.01
345.109	-0.02
345.477	-0.02
345.845	-0.02
346.214	-0.01
346.582	-0.02
346.95	-0.03
347.317	-0.02
347.685	-0.03
348.053	-0.02
348.421	-0.03
348.789	-0.03
349.156	-0.02
349.524	-0.02
349.892	-0.02
350.259	-0.03
350.627	-0.01
350.995	-0.02
351.362	-0.02
351.729	-0.03
352.097	-0.03
352.464	-0.01
352.832	-0.02
353.199	-0.02
353.566	-0.04
353.933	-0.03
354.3	-0.01
354.668	-0.03
355.035	-0.02
355.402	-0.02
355.769	-0.04
356.136	-0.02
356.503	-0.02
356.869	-0.01
357.236	-0.02
357.603	-0.01
357.97	-0.03
358.337	-0.01
358.703	-0.02
359.07	-0.02
359.436	-0.03
359.803	-0.01
360.17	-0.02
360.536	-0.03
360.902	-0.03
361.269	-0.04
361.635	-0.03
362.001	-0.04
362.368	-0.01
362.734	-0.02
363.1	-0.03
363.466	-0.02
363.832	-0.03
364.198	-0.01
364.564	-0.04
364.93	-0.04
365.296	-0.02
365.662	-0.01
366.028	-0.03
366.394	-0.01
366.76	-0.03
367.125	-0.03
367.491	-0.04
367.857	-0.03
368.222	-0.04
368.588	-0.02
368.953	-0.04
369.319	-0.03
369.684	-0.03
370.05	-0.03
370.415	-0
370.781	-0.02
371.146	-0.02
371.511	-0.05
371.876	-0.02
372.241	-0.01
372.607	-0.03
372.972	-0.02
373.337	-0.03
373.702	-0.03
374.067	-0.03
374.431	-0.03
374.796	-0.02
375.161	-0.03
375.526	-0.04
375.891	-0.03
376.255	-0.03
376.62	-0.03
376.985	-0.02
377.349	-0.01
377.714	-0.02
378.078	-0.02
378.443	-0.03
378.807	-0.03
379.172	-0.02
379.536	-0.02
379.9	-0.04
380.264	-0.03
380.629	-0.02
380.993	-0.01
381.357	-0.03
381.721	-0.02
382.085	-0.02
382.449	-0.03
382.813	-0.02
383.177	-0.03
383.541	-0.02
383.905	-0.02
384.268	-0.03
384.632	-0.02
384.996	-0.03
385.359	-0.02
385.723	-0.03
386.087	-0.04
386.45	-0.03
386.814	-0.02
387.177	-0.03
387.541	-0.02
387.904	-0.02
388.267	-0.03
388.631	-0.03
388.994	-0.02
389.357	-0.02
389.72	-0.03
390.083	-0.02
390.446	-0.01
390.809	-0.02
391.172	-0.03
391.535	-0
391.898	-0.01
392.261	-0.02
392.624	-0.04
392.987	-0.02
393.35	-0.01
393.712	-0.03
394.075	-0.02
394.437	-0.02
394.8	-0.03
395.163	-0.01
395.525	-0.02
395.888	-0.02
396.25	-0.03
396.612	-0.03
396.975	-0.02
397.337	-0.02
397.699	-0.02
398.061	-0.04
398.424	-0.02
398.786	-0.03
399.148	-0.02
399.51	-0.02
399.872	-0.02
400.234	-0.03
400.596	-0.04
400.957	-0.03
401.319	-0.03
401.681	-0.01
402.043	-0.04
402.404	-0.03
402.766	-0.02
403.128	-0.02
403.489	-0.02
403.851	-0.02
404.212	-0.03
404.574	-0.03
404.935	-0.02
405.296	-0.01
405.658	-0.01
406.019	-0.02
406.38	-0.03
406.741	-0.02
407.103	-0.03
407.464	-0.02
407.825	-0.02
408.186	-0.02
408.547	-0.02
408.908	-0.03
409.268	-0.04
409.629	-0.03
409.99	-0.03
410.351	-0.02
410.712	-0.01
411.072	-0.01
411.433	-0.03
411.793	-0.03
412.154	-0.02
412.515	-0.01
412.875	-0.03
413.235	-0.03
413.596	-0.01
413.956	-0.02
414.316	-0.02
414.677	-0.02
415.037	-0.03
415.397	-0.04
415.757	-0.04
416.117	-0.03
416.477	-0.03
416.837	-0.02
417.197	-0.03
417.557	-0.02
417.917	-0.02
418.277	-0.03
418.637	-0.01
418.996	-0.02
419.356	-0.02
419.716	-0.02
420.075	-0.02
420.435	-0.03
420.794	-0.04
421.154	-0.03
421.513	-0.03
421.873	-0.04
422.232	-0.03
422.591	-0.04
422.95	-0.03
423.31	-0.02
423.669	-0.04
424.028	-0.01
424.387	-0.02
424.746	-0.04
425.105	-0.02
425.464	-0.02
425.823	-0.04
426.182	-0.02
426.541	-0.02
426.899	-0.02
427.258	-0.04
427.617	-0.02
427.976	-0.01
428.334	-0.03
428.693	-0.01
429.051	-0.03
429.41	-0.01
429.768	-0.05
430.127	-0.03
430.485	-0.03
430.843	-0.03
431.202	-0.03
431.56	-0.02
431.918	-0.01
432.276	-0.03
432.634	-0.04
432.992	-0.03
433.35	-0.02
433.708	-0.02
434.066	-0.03
434.424	-0.04
434.782	-0.05
435.14	-0.01
435.497	-0.01
435.855	-0.02
436.213	-0.03
436.57	-0.03
436.928	-0.03
437.285	-0.04
437.643	-0.03
438	-0.05
438.358	-0.02
438.715	-0.03
439.072	-0.04
439.43	-0.04
439.787	-0.01
440.144	-0.03
440.501	-0.02
440.858	-0.04
441.215	-0.03
441.572	-0.02
441.929	-0.02
442.286	-0.04
442.643	-0.03
443	-0.03
443.357	-0.03
443.714	-0.03
444.07	-0.01
444.427	-0.03
444.783	-0.02
445.14	-0.02
445.497	-0.01
445.853	-0.04
446.209	-0.04
446.566	-0.03
446.922	-0.03
447.279	-0.04
447.635	-0.02
447.991	-0.04
448.347	-0.03
448.703	-0.03
449.059	-0.04
449.415	-0.02
449.771	-0.03
450.127	-0.04
450.483	-0.03
450.839	-0.02
451.195	-0.02
451.551	-0.03
451.906	-0.02
452.262	-0.02
452.618	-0.03
452.973	-0.02
453.329	-0.03
453.685	-0.03
454.04	-0.01
454.395	-0.03
454.751	-0.02
455.106	-0.05
455.461	-0.05
455.817	-0.04
456.172	-0.04
456.527	-0.02
456.882	-0.02
457.237	-0.02
457.592	-0.06
457.947	-0.04
458.302	-0
458.657	-0.01
459.012	-0.03
459.367	-0.03
459.721	-0.03
460.076	-0.04
460.431	-0.03
460.785	-0.02
461.14	-0.01
461.495	-0.03
461.849	-0.03
462.204	-0.03
462.558	-0.03
462.912	-0
463.267	-0.01
463.621	-0.01
463.975	-0.02
464.329	-0.04
464.683	-0.04
465.038	-0.03
465.392	-0.03
465.746	-0.02
466.1	-0.03
466.454	-0.02
466.807	-0.02
467.161	-0.03
467.515	-0.04
467.869	-0.01
468.222	-0.04
468.576	-0.04
468.93	-0.03
469.283	-0.02
469.637	-0.02
469.99	-0.01
470.344	-0.04
470.697	-0.02
471.05	-0.01
471.404	-0.03
471.757	-0.03
472.11	-0.04
472.463	-0.02
472.816	-0.01
473.169	-0.03
473.522	-0.02
473.875	-0.02
474.228	-0.03
474.581	-0.03
474.934	-0.02
475.287	-0.02
475.64	-0.03
475.992	-0.03
476.345	-0.03
476.698	-0.04
477.05	-0.03
477.403	-0.03
477.755	-0.03
478.108	-0.02
478.46	-0.05
478.812	-0.02
479.165	-0.03
479.517	-0.04
479.869	-0.03
480.221	-0.04
480.574	-0.02
480.926	-0.02
481.278	-0.04
481.63	-0.03
481.982	-0.02
482.333	-0.04
482.685	-0.03
483.037	-0.02
483.389	-0.01
483.741	-0.04
484.092	-0.04
484.444	-0.02
484.796	-0.01
485.147	-0.03
485.499	-0.03
485.85	-0.03
486.201	-0.01
486.553	-0.02
486.904	-0.04
487.255	-0.03
487.607	-0.02
487.958	-0.03
488.309	-0.02
488.66	-0.03
489.011	-0.02
489.362	-0.02
489.713	-0.03
490.064	-0.02
490.415	-0.04
490.765	-0.03
491.116	-0.02
491.467	-0.02
491.818	-0.02
492.168	0
492.519	-0.05
492.869	-0.03
493.22	-0.02
493.57	-0.01
493.921	-0.02
494.271	-0.03
494.621	-0.03
494.972	-0.02
495.322	-0.02
495.672	-0.02
496.022	-0.03
496.372	-0.03
496.722	-0.03
497.072	-0.01
497.422	-0.02
497.772	-0.05
498.122	-0.04
498.472	-0.03
498.822	-0.03
499.171	-0.03
499.521	-0.03
499.871	-0.03
500.22	-0.04
500.57	-0.02
500.919	-0.02
501.269	-0.03
501.618	-0.02
501.967	-0.03
502.317	-0.02
502.666	-0.04
503.015	-0.03
503.364	-0.02
503.713	-0.04
504.063	-0.02
504.412	-0.03
504.761	-0.04
505.11	-0.02
505.458	-0.03
505.807	-0.03
506.156	-0.03
506.505	-0.03
506.854	-0.03
507.202	-0.04
507.551	-0.04
507.899	-0.01
508.248	-0.02
508.596	-0.03
508.945	-0.04
509.293	-0.03
509.642	-0.04
509.99	-0.03
510.338	-0.02
510.686	-0.02
511.034	-0.03
511.383	-0.03
511.731	-0.04
512.079	-0.02
512.427	-0.03
512.775	-0.02
513.122	-0.04
513.47	-0.02
513.818	-0.01
514.166	-0.01
514.513	-0.01
514.861	-0.02
515.209	-0.04
515.556	-0.03
515.904	-0.03
516.251	-0.02
516.599	-0.03
516.946	-0.04
517.293	0.03
517.641	-0.03
517.988	-0.05
518.335	-0.04
518.682	-0.01
519.029	-0.03
519.376	-0.04
519.723	-0.02
520.07	-0.01
520.417	-0.04
520.764	-0.03
521.111	-0.03
521.458	-0.02
521.804	-0.03
522.151	-0.03
522.498	-0.04
522.844	-0.02
523.191	-0.03
523.537	-0.03
523.884	-0.03
524.23	-0.03
524.576	-0.02
524.923	-0.03
525.269	-0.03
525.615	-0.02
525.961	-0.02
526.307	-0.02
526.653	-0.01
526.999	-0.04
527.345	-0.03
527.691	-0.03
528.037	-0.04
528.383	-0.03
528.729	-0.03
529.075	-0.03
529.42	-0.03
529.766	-0.04
530.112	-0.03
530.457	-0.02
530.803	-0.02
531.148	-0.03
531.493	-0.02
531.839	-0.03
532.184	-0.03
532.529	-0.02
532.875	-0.03
533.22	-0.02
533.565	-0.02
533.91	-0.03
534.255	-0.04
534.6	-0.04
534.945	-0.04
535.29	-0.03
535.635	-0.02
535.98	-0.02
536.324	-0.02
536.669	-0.03
537.014	-0.01
537.358	-0.02
537.703	-0.03
538.047	-0.03
538.392	-0.04
538.736	-0.03
539.081	-0.03
539.425	-0.03
539.769	-0.03
540.113	-0.02
540.458	-0.04
540.802	-0.02
541.146	-0.02
541.49	-0.03
541.834	-0.03
542.178	-0.03
542.522	-0.03
542.866	-0.02
543.209	-0.04
543.553	-0.03
543.897	-0.03
544.241	-0.05
544.584	-0.03
544.928	-0.03
545.271	-0.02
545.615	-0.02
545.958	-0.03
546.302	-0.04
546.645	-0.02
546.988	-0.04
547.331	-0.02
547.675	-0.03
548.018	-0.04
548.361	-0.02
548.704	-0.04
549.047	-0.05
549.39	-0.02
549.733	-0.02
550.076	-0.02
550.418	-0.04
550.761	-0.02
551.104	-0.02
551.447	-0.02
551.789	-0.04
552.132	-0.06
552.474	-0.02
552.817	-0.02
553.159	-0.02
553.502	-0.03
553.844	-0.02
554.186	-0.03
554.528	-0.03
554.871	-0.04
555.213	-0.01
555.555	-0.02
555.897	-0.04
556.239	-0.03
556.581	-0.04
556.923	-0.02
557.265	-0.01
557.606	-0.02
557.948	-0.02
558.29	-0.02
558.632	-0
558.973	-0.01
559.315	-0.02
559.656	-0.03
559.998	-0.03
560.339	-0.04
560.68	-0
561.022	-0
561.363	-0.02
561.704	-0.04
562.046	-0.05
562.387	-0.03
562.728	-0.03
563.069	-0.03
563.41	-0.02
563.751	-0.02
564.092	-0.03
564.432	-0.04
564.773	-0.02
565.114	-0.01
565.455	-0.03
565.795	-0.02
566.136	-0.03
566.477	-0.03
566.817	-0.01
567.157	-0.03
567.498	-0.02
567.838	-0.04
568.179	-0.05
568.519	-0.04
568.859	-0.03
569.199	-0.01
569.539	-0.02
569.879	-0.03
570.219	-0.08
570.559	-0.04
570.899	-0.03
571.239	-0.02
571.579	-0.04
571.919	-0.03
572.259	-0.02
572.598	-0.01
572.938	-0.02
573.278	-0.07
573.617	-0.05
573.957	-0.02
574.296	-0.02
574.635	-0.06
574.975	-0.04
575.314	0.01
575.653	0.01
575.993	-0.01
576.332	-0.04
576.671	-0.06
577.01	-0.03
577.349	-0.02
577.688	-0.04
578.027	-0.08
578.366	-0.08
578.704	-0.01
579.043	0.03
579.382	0.01
579.721	-0.03
580.059	-0.05
580.398	-0.04
580.736	-0.04
581.075	-0.07
581.413	-0.07
581.752	-0.07
582.09	-0.06
582.428	0
582.766	0
583.105	0
583.443	-0.03
583.781	-0.04
584.119	-0.05
584.457	-0.04
584.795	-0.03
585.133	-0.02
585.47	-0.01
585.808	-0.02
586.146	-0.01
586.484	-0.03
586.821	-0.07
587.159	-0.04
587.496	-0.01
587.834	-0.02
588.171	-0.04
588.509	-0.04
588.846	-0.05
589.183	-0.03
589.521	-0.05
589.858	-0.07
590.195	-0.03
590.532	0
590.869	0.01
591.206	-0.01
591.543	-0.02
591.88	-0.06
592.217	-0.07
592.554	-0.04
592.89	-0.01
593.227	-0.01
593.564	-0.04
593.9	-0.07
594.237	-0.05
594.573	-0.04
594.91	-0.03
595.246	-0
595.583	-0.04
595.919	-0.07
596.255	-0.03
596.592	0
596.928	-0.02
597.264	-0.04
597.6	-0.01
597.936	0
598.272	-0.03
598.608	-0.03
598.944	-0.03
599.279	-0.04
599.615	-0.02
599.951	-0.04
600.287	-0.06
600.622	-0.06
600.958	-0.03
601.293	0
601.629	0
601.964	-0.03
602.3	-0.06
602.635	-0.05
602.97	-0.04
603.305	-0.02
603.641	-0.02
603.976	-0.02
604.311	-0.05
604.646	-0.03
604.981	-0
605.316	0
605.651	-0.02
605.986	-0.05
606.32	-0.02
606.655	-0.04
606.99	-0.05
607.324	-0.03
607.659	-0
607.993	-0.02
608.328	-0.06
608.662	-0.04
608.997	-0.02
609.331	-0.02
609.665	-0.03
610	-0.05
610.334	-0.04
610.668	-0.01
611.002	-0
611.336	-0.04
611.67	-0.06
612.004	-0.05
612.338	-0.01
612.672	0.03
613.005	0.01
613.339	-0.02
613.673	-0.05
614.006	-0.05
614.34	-0.02
614.674	-0.02
615.007	-0.03
615.341	-0.05
615.674	-0.04
616.007	-0.02
616.341	-0.02
616.674	-0.05
617.007	-0.06
617.34	-0.03
617.673	-0
618.006	0
618.339	-0.04
618.672	-0.07
619.005	-0.09
619.338	-0.05
619.671	0.02
620.003	0.02
620.336	-0.01
620.669	-0.05
621.001	-0.03
621.334	-0.03
621.666	-0.05
621.999	-0.03
622.331	0.01
622.663	-0.03
622.996	-0.04
623.328	-0.02
623.66	-0.03
623.992	-0.04
624.324	-0.04
624.656	-0.02
624.988	0.01
625.32	-0
625.652	-0.03
625.984	-0.07
626.316	-0.07
626.647	-0.04
626.979	0.02
627.311	-0
627.642	-0.01
627.974	-0.02
628.305	-0.03
628.637	-0.01
628.968	-0.02
629.299	-0.01
629.631	-0.07
629.962	-0.06
630.293	-0.02
630.624	-0.01
630.955	-0.04
631.286	-0.07
631.617	-0.04
631.948	-0.01
632.279	-0.03
632.61	-0.03
632.941	-0.03
633.271	-0.08
633.602	-0.04
633.932	-0.01
634.263	0.01
634.594	-0.01
634.924	-0.03
635.254	-0.03
635.585	-0.07
635.915	-0.01
636.245	-0.03
636.576	-0.02
636.906	0.02
637.236	-0.06
637.566	-0.01
637.896	-0.05
638.226	-0
638.556	-0.01
638.886	-0.02
639.215	-0.02
639.545	0.02
639.875	0
640.204	-0.05
640.534	-0.09
640.864	-0.05
641.193	-0.01
641.522	-0.01
641.852	-0.02
642.181	-0.02
642.511	-0.06
642.84	-0.03
643.169	-0.02
643.498	-0.06
643.827	-0.03
644.156	0
644.485	-0.02
644.814	-0.05
645.143	-0.09
645.472	-0.07
645.801	-0.02
646.129	0.02
646.458	0.02
646.787	-0.01
647.115	-0.01
647.444	0.02
647.772	-0.05
648.101	-0.04
648.429	-0.08
648.757	-0.04
649.085	-0.01
649.414	-0.04
649.742	-0.04
650.07	-0.09
650.398	-0.05
650.726	-0.04
651.054	-0.01
651.382	-0.01
651.71	-0.03
652.038	-0.14
652.365	-0.08
652.693	-0.3
653.021	-0.4
653.348	-0.13
653.676	0.1
654.003	0.14
654.331	0.05
654.658	-0.14
654.985	-0.19
655.313	-0.12
655.64	-0.08
655.967	-0.02
656.294	-0.01
656.621	-0.04
656.948	-0.08
657.275	-0.09
657.602	-0.06
657.929	-0.04
658.256	-0.09
658.583	-0.04
658.909	-0.08
659.236	-0.05
659.563	0.01
659.889	-0.05
660.216	0.02
660.542	0.02
660.869	-0.05
661.195	0.03
661.521	0.01
661.847	-0.01
662.174	-0.02
662.5	-0.01
662.826	-0.01
663.152	-0.05
663.478	0.03
663.804	0.02
664.13	-0.05
664.456	-0.02
664.781	-0.04
665.107	-0.06
665.433	-0.02
665.758	-0.06
666.084	-0
666.41	-0
666.735	-0.02
667.06	0.01
667.386	0
667.711	-0.06
668.036	-0.01
668.362	-0.06
668.687	-0.08
669.012	-0.08
669.337	-0.02
669.662	-0
669.987	0.03
670.312	0.03
670.637	-0.01
670.961	-0.04
671.286	-0.07
671.611	-0.05
671.935	-0.04
672.26	-0.09
672.585	-0.02
672.909	-0.02
673.233	-0.06
673.558	-0.01
673.882	-0.01
674.206	-0.03
674.531	-0.04
674.855	-0.05
675.179	-0.05
675.503	-0.06
675.827	0.02
676.151	-0.01
676.475	-0.07
676.799	-0.02
677.123	-0.01
677.446	-0.03
677.77	0.04
678.094	-0.05
678.417	-0.07
678.741	-0.1
679.064	-0.03
679.388	-0.03
679.711	0.04
680.034	-0.04
680.358	-0.01
680.681	-0.07
681.004	-0.09
681.327	-0.05
681.65	-0.06
681.973	-0.01
682.296	-0.02
682.619	-0.03
682.942	-0.07
683.265	-0
683.587	0.03
683.91	-0.02
684.233	-0.06
684.555	-0.09
684.878	-0.07
685.2	-0.04
685.523	0
685.845	-0.01
686.168	-0.05
686.49	-0.05
686.812	-0.08
687.134	-0.05
687.456	-0.01
687.778	0.04
688.1	-0.06
688.422	-0.08
688.744	-0.03
689.066	-0.04
689.388	0.01
689.71	-0.01
690.031	-0.05
690.353	-0.06
690.675	-0.08
690.996	-0.04
691.318	0.02
691.639	0.01
691.96	-0.02
692.282	-0.08
692.603	-0.05
692.924	-0.05
693.245	0.06
693.566	0.02
693.887	-0.07
694.208	-0.18
694.529	-0.07
694.85	0.04
695.171	0.06
695.492	0.06
695.813	-0.01
696.133	-0.11
696.454	-0.06
696.775	0.01
697.095	-0.05
697.416	-0.1
697.736	-0.05
698.056	-0.05
698.377	-0.05
698.697	-0.03
699.017	-0.03
699.337	-0.05
699.657	-0.09
699.977	-0.06
700.297	0.02
700.617	0.03
700.937	0.03
701.257	-0.03
701.577	-0.05
701.897	-0.08
702.216	-0.03
702.536	0.02
702.855	-0.01
703.175	-0.04
703.494	-0.1
703.814	-0.14
704.133	-0.11
704.452	-0.05
704.772	0
705.091	0.03
705.41	-0.01
705.729	0
706.048	-0.03
706.367	-0.01
706.686	-0.06
707.005	-0.02
707.324	-0.01
707.642	-0.07
707.961	-0.03
708.28	-0.08
708.598	0.05
708.917	0.04
709.235	-0.03
709.554	-0.15
709.872	-0.12
710.191	-0.05
710.509	-0.03
710.827	-0.03
711.145	0.02
711.463	-0.03
711.781	-0.03
712.099	-0.04
712.417	-0.02
712.735	-0.02
713.053	-0.03
713.371	-0.01
713.689	-0.02
714.006	-0.04
714.324	-0.09
714.642	-0.04
714.959	-0.05
715.277	-0.02
715.594	-0.03
715.911	-0.09
716.229	0.02
716.546	-0.06
716.863	-0.09
717.18	-0.06
717.497	-0.01
717.814	-0.06
718.131	-0.08
718.448	-0.09
718.765	-0.06
719.082	-0.01
719.399	-0.1
719.715	-0.09
720.032	-0.05
720.349	-0.05
720.665	-0.07
720.982	-0.03
721.298	-0
721.615	-0.02
721.931	-0.06
722.247	-0.01
722.563	-0.07
722.88	-0.04
723.196	0.02
723.512	-0.01
723.828	-0.01
724.144	-0.04
724.46	-0.02
724.775	-0.04
725.091	-0.01
725.407	-0.07
725.723	-0.01
726.038	0.01
726.354	-0.01
726.669	-0.01
726.985	-0.1
727.3	-0.04
727.616	-0.07
727.931	-0.09
728.246	-0.08
728.561	-0.04
728.876	0.01
729.192	0.03
729.507	0.01
729.822	-0.04
730.136	-0.06
730.451	-0.09
730.766	0.02
731.081	-0.02
731.396	-0.05
731.71	-0.04
732.025	-0.01
732.339	0.02
732.654	-0
732.968	-0.04
733.283	-0.05
733.597	-0.02
733.911	-0
734.225	-0.06
734.54	-0.06
734.854	-0.01
735.168	-0.02
735.482	-0.03
735.796	-0.03
736.11	-0.09
736.423	-0.09
736.737	-0.06
737.051	0.02
737.364	0.02
737.678	-0.01
737.992	-0.06
738.305	-0.07
738.619	-0.08
738.932	-0.08
739.245	-0.05
739.559	-0.04
739.872	-0.1
740.185	-0.01
740.498	0.05
740.811	0.06
741.124	-0.02
741.437	-0.01
741.75	-0.11
742.063	-0.14
742.376	-0.07
742.688	-0.08
743.001	-0.01
743.314	-0.05
743.626	0.02
743.939	0.07
744.251	0
744.564	-0.04
744.876	-0.09
745.188	0.07
745.5	0.05
745.813	-0.08
746.125	-0.05
746.437	-0.02
746.749	-0.03
747.061	-0.02
747.373	-0.02
747.684	-0
747.996	-0.07
748.308	-0.02
748.62	-0.03
748.931	-0.15
749.243	-0.06
749.554	-0.02
749.866	-0.07
750.177	-0.09
750.489	-0.01
750.8	-0.06
751.111	-0.04
751.422	-0.01
751.733	0
752.044	-0.06
752.355	-0.11
752.666	-0.15
752.977	-0.13
753.288	-0.12
753.599	-0.12
753.91	-0.03
754.22	-0.02
754.531	-0.04
754.842	-0.02
755.152	-0
755.463	0.03
755.773	0.02
756.083	0
756.394	-0.05
756.704	-0.09
757.014	-0.09
757.324	-0.04
757.634	-0.05
757.944	-0.04
758.254	-0.03
758.564	-0.02
758.874	-0.01
759.184	0.01
759.493	-0.05
759.803	-0.04
760.113	-0.06
760.422	-0.09
760.732	-0.05
761.041	-0.04
761.351	-0.05
761.66	-0.07
761.969	-0.03
762.279	-0.05
762.588	-0.04
762.897	-0.02
763.206	-0.02
763.515	-0.05
763.824	-0.05
764.133	-0.06
764.442	-0.04
764.75	-0.13
765.059	-0.01
765.368	-0.12
765.676	-0.14
765.985	-0.06
766.293	-0
766.602	-0.01
766.91	-0.03
767.219	-0.05
767.527	-0.03
767.835	-0.04
768.143	-0.12
768.451	-0.18
768.76	-0.06
769.068	-0.05
769.375	0
769.683	-0.06
769.991	-0.02
770.299	-0.1
770.607	-0.04
770.914	-0.03
771.222	0.01
771.53	-0.02
771.837	0.02
772.144	0.01
772.452	-0.07
772.759	-0.13
773.066	-0.05
773.374	-0.11
773.681	-0.18
773.988	-0.27
774.295	0.03
774.602	-0.1
774.909	-0.47
775.216	-0.14
775.523	0.07
775.829	-0.04
776.136	-0.11
776.443	-0.11
776.749	0.11
777.056	-0.02
777.362	-0.02
777.669	-0.08
777.975	-0.03
778.281	0.02
778.588	-0.16
778.894	-0.11
779.2	0.04
779.506	0.02
779.812	0.02
780.118	-0.04
780.424	-0.03
780.73	-0.11
781.036	-0.05
781.341	-0.18
781.647	-0.06
781.953	-0.06
782.258	-0.03
782.564	-0.04
782.869	0.03
783.175	-0.11
783.48	-0.16
783.785	-0.15
784.091	-0.07
784.396	-0.1
784.701	0.06
785.006	-0.03
785.311	-0.09
785.616	-0.08
785.921	-0.05
786.226	-0.23
786.53	-0.02
786.835	0
787.14	-0.07
787.444	-0.1
787.749	-0.11
788.053	-0.25
788.358	-0.01
788.662	0.11
788.967	-0.11
789.271	0.09
789.575	0.03
789.879	-0.02
790.183	-0
790.487	-0.19
790.791	-0.15
791.095	-0.11
791.399	-0.1
791.703	-0.18
792.007	-0.16
792.31	-0.06
792.614	-0.06
792.918	-0.06
793.221	-0.09
793.525	-0.17
793.828	-0.04
794.131	-0.05
794.435	-0.16
794.738	-0.33
795.041	-0.17
795.344	0.09
795.647	-0.51
795.95	-0.23
796.253	0.1
796.556	-0.13
796.859	-0.21
797.162	0.09
797.465	-0.06
797.767	-0.22
798.07	-0.01
798.372	0.04
798.675	0.03
798.977	0.02
799.28	0.14
799.582	-0.09
799.884	-0
800.186	0.65
800.489	-0.09
800.791	-0
801.093	-1.11
801.395	-0.05
801.697	-0.21
801.999	-0.35
802.3	-0
802.602	0.56
802.904	-0.18
803.205	-0.07
803.507	-0.06
803.809	-0.43
804.11	-0.01
804.411	-0.03
804.713	0.15
805.014	-0.28
805.315	0.14
805.616	0.14
805.918	-0.26
806.219	-0.25
806.52	0.15
806.821	0.05
807.121	-0.06
807.422	0.15
807.723	-0
808.024	0.12
808.324	-0.56
808.625	-0
808.926	-0.32
809.226	-0.13
809.526	-0
809.827	-0.88
810.127	-0.08
810.427	-0.25
810.728	-0.94
811.028	-0
811.328	-1.2
811.628	-0.1
811.928	-0.07
812.228	-0.42
812.527	-0
812.827	0.08
813.127	-0.12
813.427	0.51
813.726	-0.51
814.026	-0
814.325	0.17
814.625	-0.28
814.924	-0.86
815.223	0.03
815.523	-0.97
815.822	-1.15
816.121	2.89
816.42	0.09
816.719	0.2
817.018	-0
817.317	0.95
817.616	0.25
817.915	0.03
818.214	-0
818.512	-0.04
818.811	-0.02
819.109	-0
819.408	0.28
819.706	-0.53
820.005	-0
820.303	0.11
820.601	0.12
820.9	0.25
821.198	-0.46
821.496	-0.16
821.794	-2.28
822.092	-0.37
822.39	-0
822.688	0.34
822.985	0.35
823.283	-0
823.581	0.15
823.879	0.48
824.176	0.28
824.474	0.59
824.771	-0
825.068	0.3
825.366	-0.09
825.663	-0
825.96	-0.37
826.257	0.01
826.555	0.04
826.852	-0
827.149	-0.07
827.446	0.04
827.742	0.08
828.039	0.72
828.336	0.05
828.633	-0.14
828.929	-0.16
829.226	-0.97
829.522	1.27
829.819	-0.02
830.115	-0.14
830.412	0.16
830.708	-0
831.004	0.12
831.3	0.44
831.596	0.36
831.892	0.14
832.188	-0
832.484	0.95
832.78	0.81
833.076	0.1
833.372	0.31
833.668	0.52
833.963	-0.05
834.259	-0
834.554	0.36
834.85	0.36
835.145	-0.07
835.441	0.04
835.736	0.06
836.031	0.03
836.326	-0.86
836.621	0.01
836.916	0.26
837.211	0.17
837.506	-0.78
837.801	0.24
838.096	-0.34
838.391	0.12
838.685	-0
838.98	-0
839.275	-1.75
839.569	0.43
839.864	0.2
840.158	-0
840.452	-0.1
840.747	-0.02
841.041	0.05
841.335	-0
841.629	-0
841.923	-0.41
842.217	-0
842.511	0.1
842.805	-0
843.099	0.51
843.393	0
843.686	-0.71
843.98	-0
844.273	-0
844.567	-0
844.86	-0
845.154	0.47
845.447	-0.23
845.74	0.68
846.034	0.01
846.327	0.22
846.62	0.34
846.913	-0
847.206	0.13
847.499	0.54
847.792	0.2
848.084	-0.19
848.377	-0.12
848.67	0.2
848.962	0.72
849.255	-0
849.548	0.55
849.84	0.03
850.132	-0
850.425	-0
850.717	-0
851.009	0.68
851.301	0.75
851.593	-0
851.885	-0
852.177	-0.01
852.469	0.17
852.761	-0.85
853.053	0.34
853.345	-0.1
853.636	-0
853.928	-0
854.219	-0
854.511	-0.04
854.802	-0
855.094	-0
855.385	1.06
855.676	-0.32
855.967	1.13
856.259	0.12
856.55	-0.2
856.841	-0
857.132	0.11
857.423	-0.23
857.713	-0.37
858.004	0.42
858.295	-0.1
858.585	-0
858.876	0.13
859.167	0.42
859.457	-0.07
859.747	-0
860.038	-0.36
860.328	0.56
860.618	-0.12
860.909	-0.68
861.199	0.21
861.489	-0.09
861.779	-0.34
862.069	-0
862.358	0.09
862.648	-0.07
862.938	0.03
863.228	-0.16
863.517	0.11
863.807	1.54
864.096	-1.92
864.386	-0
864.675	-0.28
864.965	-0.29
865.254	0.05
865.543	0.12
865.832	-0
866.121	-0.17
866.41	0.2
866.699	-0.1
866.988	-0
867.277	0.01
867.566	0.27
867.855	-0
868.143	-0.61
868.432	0.14
868.72	0.48
869.009	0.16
869.297	-0
869.586	-0.21
869.874	0.1
870.162	0.47
870.45	-0.46
870.739	-1.12
871.027	-0.71
871.315	-0
871.603	-0
871.89	-0
872.178	0.79
872.466	-0
872.754	-1.13
873.041	0.03
873.329	0.19
873.616	0.62
873.904	0.63
874.191	-0
874.479	-0
874.766	-0
875.053	-0
