Data from VictorTetra_Absorbance__1__00001.txt Node

Date: Thu Oct 10 15:44:17 EDT 2024
User: earladmin
Spectrometer: FLCH01037
Trigger mode: 0
Integration Time (sec): 1.000000E-1
Scans to average: 5
Electric dark correction enabled: true
Nonlinearity correction enabled: false
Boxcar width: 2
XAxis mode: Wavelengths
Number of Pixels in Spectrum: 2048
>>>>>Begin Spectral Data<<<<<
178.246	-0.04
178.631	0.17
179.016	0.3
179.401	0.53
179.785	0.08
180.17	-0.7
180.554	0.31
180.939	0.08
181.323	0.01
181.708	-0.05
182.092	-0
182.477	-0.02
182.861	0.7
183.245	-0.38
183.63	0.08
184.014	-0
184.398	-0.22
184.782	-0.12
185.167	-0.03
185.551	-0.22
185.935	0.27
186.319	-0.03
186.703	-0.11
187.087	-0.05
187.471	-0
187.855	-0.58
188.238	-0.41
188.622	1.07
189.006	0.07
189.39	-0.23
189.774	0.02
190.157	1.75
190.541	-0.31
190.925	0.18
191.308	0.04
191.692	0.32
192.075	0.35
192.459	-0.96
192.842	-0
193.226	-0
193.609	-0.24
193.992	0.3
194.376	0.08
194.759	0.59
195.142	-0.01
195.525	0.36
195.909	1.12
196.292	0.22
196.675	-0
197.058	0.26
197.441	-0
197.824	0.26
198.207	-0
198.59	-0.15
198.973	0.1
199.356	0.36
199.738	0.45
200.121	0.29
200.504	1.71
200.887	-0
201.269	0.17
201.652	-0
202.035	0.01
202.417	1.05
202.8	-0.27
203.182	0
203.565	0.56
203.947	-0
204.329	0.77
204.712	-0.07
205.094	-0
205.476	0.16
205.859	-0.17
206.241	0.73
206.623	0.57
207.005	-0
207.387	0.21
207.769	-0.4
208.151	-0
208.533	-0
208.915	0.16
209.297	-0.06
209.679	0.43
210.061	0.9
210.443	-0
210.825	-0
211.206	-0
211.588	-0.34
211.97	0.71
212.351	-0.05
212.733	0.44
213.115	0.39
213.496	0.16
213.878	0.42
214.259	0.02
214.641	0.58
215.022	-0
215.403	0.79
215.785	0.99
216.166	-0.65
216.547	-0
216.928	-0
217.31	-0
217.691	0.54
218.072	-0.13
218.453	-0
218.834	-0.39
219.215	0.04
219.596	0.23
219.977	0.25
220.358	-0.15
220.739	0.93
221.119	0.96
221.5	-0
221.881	0.25
222.262	0.38
222.642	1.1
223.023	-0
223.403	-0.26
223.784	0.36
224.165	-0
224.545	-0.02
224.926	-0
225.306	-0.04
225.686	0.26
226.067	-0.15
226.447	0.56
226.827	0.52
227.207	0.27
227.588	-0
227.968	-0
228.348	0.83
228.728	0.6
229.108	0.14
229.488	1.18
229.868	-1.07
230.248	-0
230.628	0.57
231.008	-0
231.388	-0
231.767	0.63
232.147	-0.33
232.527	0.44
232.907	0.21
233.286	0.41
233.666	-0
234.046	-0
234.425	-0
234.805	0.32
235.184	1.38
235.564	0.15
235.943	0.16
236.322	0.27
236.702	0.15
237.081	0.01
237.46	1.44
237.839	0.02
238.219	0.57
238.598	0.36
238.977	0.33
239.356	1.01
239.735	0.04
240.114	-0
240.493	0.23
240.872	0.82
241.251	0.44
241.629	0.31
242.008	0.65
242.387	0.48
242.766	0.46
243.145	-0
243.523	0.37
243.902	0.46
244.28	-0
244.659	-0
245.037	0.54
245.416	-0
245.794	0.59
246.173	-0
246.551	0.31
246.93	0.36
247.308	0.86
247.686	-0
248.064	0.97
248.442	-0
248.821	1.18
249.199	0.84
249.577	0.68
249.955	0.51
250.333	0.55
250.711	-0
251.089	0.8
251.467	-0
251.844	0.52
252.222	0.31
252.6	0.52
252.978	1.56
253.356	0.65
253.733	-0
254.111	1.35
254.488	0.8
254.866	1.58
255.243	1.59
255.621	-0
255.998	0.65
256.376	2.5
256.753	-0
257.13	-0
257.508	0.77
257.885	-0
258.262	-0
258.639	0.95
259.017	0.75
259.394	-0
259.771	1.68
260.148	-0
260.525	1.41
260.902	-0
261.279	1.39
261.656	0.86
262.032	1.15
262.409	0.83
262.786	0.98
263.163	0.69
263.539	1.38
263.916	1.49
264.293	1.37
264.669	1.12
265.046	1.09
265.422	1.7
265.799	-0
266.175	2.04
266.552	-0
266.928	-0
267.304	2.38
267.681	1.21
268.057	1.39
268.433	1.47
268.809	-0
269.185	-0
269.561	2.1
269.937	1.38
270.313	1.46
270.689	-0
271.065	1.87
271.441	1.6
271.817	-0
272.193	-0
272.569	1.14
272.945	1.54
273.32	-0
273.696	-0
274.072	1.13
274.447	-0
274.823	-0
275.198	-0
275.574	1.38
275.949	1.19
276.325	1.36
276.7	1.11
277.075	1.37
277.451	2.27
277.826	1.39
278.201	-0
278.576	1.37
278.951	1.39
279.326	1.22
279.702	1.52
280.077	1.53
280.452	-0
280.827	1.85
281.201	-0
281.576	1.75
281.951	2.28
282.326	-0
282.701	1.62
283.075	1.45
283.45	1.47
283.825	1.77
284.199	1.88
284.574	1.59
284.949	-0
285.323	1.78
285.697	-0
286.072	2.7
286.446	1.97
286.821	1.6
287.195	1.97
287.569	1.82
287.943	-0
288.318	2.05
288.692	1.54
289.066	-0
289.44	2.41
289.814	2.45
290.188	1.87
290.562	1.72
290.936	1.72
291.31	-0
291.684	3.18
292.057	2.04
292.431	1.53
292.805	3.22
293.179	-0
293.552	2.01
293.926	2.12
294.299	-0
294.673	1.76
295.046	1.64
295.42	-0
295.793	2.45
296.167	1.75
296.54	1.72
296.913	1.85
297.287	2.51
297.66	2.32
298.033	-0
298.406	1.91
298.779	2.11
299.152	1.56
299.525	2.33
299.898	2.15
300.271	1.93
300.644	1.4
301.017	1.72
301.39	2.03
301.763	1.76
302.136	1.53
302.508	1.64
302.881	1.74
303.254	1.55
303.626	1.42
303.999	1.41
304.371	1.46
304.744	1.4
305.116	1.4
305.489	1.36
305.861	1.53
306.233	1.34
306.606	1.47
306.978	1.35
307.35	1.31
307.722	1.29
308.095	1.59
308.467	1.36
308.839	1.28
309.211	1.29
309.583	1.41
309.955	1.2
310.327	1.36
310.698	1.6
311.07	1.23
311.442	1.53
311.814	1.2
312.185	1.31
312.557	1.56
312.929	1.58
313.3	1.21
313.672	1.51
314.043	1.38
314.415	1.36
314.786	1.18
315.158	1.34
315.529	1.26
315.9	1.17
316.272	1.25
316.643	1.23
317.014	1.16
317.385	1.16
317.756	1.06
318.127	1.08
318.499	1
318.87	1.04
319.24	1.02
319.611	1.04
319.982	0.99
320.353	1
320.724	0.92
321.095	0.88
321.465	0.89
321.836	0.82
322.207	0.81
322.577	0.8
322.948	0.82
323.318	0.79
323.689	0.74
324.059	0.69
324.43	0.68
324.8	0.69
325.171	0.66
325.541	0.67
325.911	0.68
326.281	0.58
326.651	0.65
327.022	0.57
327.392	0.59
327.762	0.57
328.132	0.52
328.502	0.54
328.872	0.51
329.242	0.49
329.611	0.5
329.981	0.48
330.351	0.48
330.721	0.45
331.09	0.45
331.46	0.43
331.83	0.4
332.199	0.41
332.569	0.41
332.938	0.39
333.308	0.36
333.677	0.38
334.047	0.33
334.416	0.35
334.785	0.35
335.154	0.33
335.524	0.32
335.893	0.33
336.262	0.34
336.631	0.32
337	0.31
337.369	0.32
337.738	0.31
338.107	0.3
338.476	0.3
338.845	0.3
339.214	0.3
339.582	0.28
339.951	0.29
340.32	0.26
340.689	0.29
341.057	0.26
341.426	0.26
341.794	0.28
342.163	0.27
342.531	0.27
342.9	0.25
343.268	0.28
343.636	0.26
344.005	0.26
344.373	0.29
344.741	0.27
345.109	0.26
345.477	0.27
345.845	0.26
346.214	0.28
346.582	0.27
346.95	0.27
347.317	0.28
347.685	0.28
348.053	0.28
348.421	0.28
348.789	0.28
349.156	0.29
349.524	0.3
349.892	0.3
350.259	0.31
350.627	0.33
350.995	0.31
351.362	0.33
351.729	0.33
352.097	0.33
352.464	0.35
352.832	0.35
353.199	0.36
353.566	0.33
353.933	0.36
354.3	0.37
354.668	0.36
355.035	0.37
355.402	0.37
355.769	0.36
356.136	0.38
356.503	0.39
356.869	0.4
357.236	0.4
357.603	0.42
357.97	0.4
358.337	0.42
358.703	0.4
359.07	0.41
359.436	0.4
359.803	0.4
360.17	0.4
360.536	0.4
360.902	0.4
361.269	0.41
361.635	0.42
362.001	0.42
362.368	0.46
362.734	0.45
363.1	0.43
363.466	0.45
363.832	0.46
364.198	0.46
364.564	0.46
364.93	0.46
365.296	0.47
365.662	0.51
366.028	0.48
366.394	0.5
366.76	0.48
367.125	0.5
367.491	0.5
367.857	0.5
368.222	0.51
368.588	0.54
368.953	0.51
369.319	0.52
369.684	0.54
370.05	0.54
370.415	0.56
370.781	0.58
371.146	0.58
371.511	0.57
371.876	0.57
372.241	0.6
372.607	0.59
372.972	0.61
373.337	0.59
373.702	0.59
374.067	0.6
374.431	0.66
374.796	0.62
375.161	0.62
375.526	0.6
375.891	0.61
376.255	0.63
376.62	0.63
376.985	0.64
377.349	0.66
377.714	0.64
378.078	0.66
378.443	0.65
378.807	0.64
379.172	0.64
379.536	0.63
379.9	0.63
380.264	0.6
380.629	0.67
380.993	0.67
381.357	0.65
381.721	0.64
382.085	0.68
382.449	0.69
382.813	0.64
383.177	0.63
383.541	0.64
383.905	0.65
384.268	0.7
384.632	0.69
384.996	0.7
385.359	0.71
385.723	0.7
386.087	0.73
386.45	0.72
386.814	0.72
387.177	0.69
387.541	0.73
387.904	0.71
388.267	0.73
388.631	0.73
388.994	0.75
389.357	0.73
389.72	0.73
390.083	0.72
390.446	0.72
390.809	0.71
391.172	0.73
391.535	0.78
391.898	0.76
392.261	0.74
392.624	0.74
392.987	0.78
393.35	0.79
393.712	0.73
394.075	0.73
394.437	0.74
394.8	0.72
395.163	0.77
395.525	0.74
395.888	0.7
396.25	0.73
396.612	0.67
396.975	0.67
397.337	0.68
397.699	0.7
398.061	0.65
398.424	0.7
398.786	0.65
399.148	0.67
399.51	0.63
399.872	0.63
400.234	0.59
400.596	0.61
400.957	0.61
401.319	0.64
401.681	0.64
402.043	0.59
402.404	0.58
402.766	0.58
403.128	0.59
403.489	0.6
403.851	0.58
404.212	0.55
404.574	0.59
404.935	0.59
405.296	0.55
405.658	0.57
406.019	0.55
406.38	0.54
406.741	0.56
407.103	0.54
407.464	0.56
407.825	0.57
408.186	0.56
408.547	0.58
408.908	0.56
409.268	0.56
409.629	0.55
409.99	0.53
410.351	0.56
410.712	0.59
411.072	0.59
411.433	0.58
411.793	0.59
412.154	0.58
412.515	0.61
412.875	0.59
413.235	0.59
413.596	0.59
413.956	0.56
414.316	0.58
414.677	0.59
415.037	0.55
415.397	0.53
415.757	0.51
416.117	0.51
416.477	0.51
416.837	0.51
417.197	0.5
417.557	0.49
417.917	0.47
418.277	0.44
418.637	0.44
418.996	0.4
419.356	0.41
419.716	0.4
420.075	0.38
420.435	0.36
420.794	0.32
421.154	0.33
421.513	0.3
421.873	0.29
422.232	0.29
422.591	0.27
422.95	0.26
423.31	0.25
423.669	0.23
424.028	0.26
424.387	0.24
424.746	0.21
425.105	0.23
425.464	0.22
425.823	0.19
426.182	0.2
426.541	0.2
426.899	0.19
427.258	0.18
427.617	0.19
427.976	0.21
428.334	0.18
428.693	0.2
429.051	0.19
429.41	0.2
429.768	0.17
430.127	0.2
430.485	0.2
430.843	0.2
431.202	0.21
431.56	0.23
431.918	0.24
432.276	0.24
432.634	0.23
432.992	0.26
433.35	0.26
433.708	0.28
434.066	0.28
434.424	0.28
434.782	0.28
435.14	0.33
435.497	0.35
435.855	0.36
436.213	0.37
436.57	0.38
436.928	0.41
437.285	0.43
437.643	0.46
438	0.43
438.358	0.49
438.715	0.51
439.072	0.49
439.43	0.5
439.787	0.53
440.144	0.51
440.501	0.54
440.858	0.49
441.215	0.52
441.572	0.51
441.929	0.49
442.286	0.46
442.643	0.46
443	0.45
443.357	0.43
443.714	0.41
444.07	0.42
444.427	0.37
444.783	0.37
445.14	0.35
445.497	0.33
445.853	0.28
446.209	0.27
446.566	0.26
446.922	0.24
447.279	0.21
447.635	0.22
447.991	0.19
448.347	0.18
448.703	0.16
449.059	0.15
449.415	0.15
449.771	0.14
450.127	0.11
450.483	0.12
450.839	0.13
451.195	0.11
451.551	0.1
451.906	0.1
452.262	0.11
452.618	0.1
452.973	0.11
453.329	0.09
453.685	0.08
454.04	0.11
454.395	0.09
454.751	0.09
455.106	0.07
455.461	0.07
455.817	0.08
456.172	0.08
456.527	0.1
456.882	0.1
457.237	0.11
457.592	0.08
457.947	0.1
458.302	0.14
458.657	0.13
459.012	0.12
459.367	0.12
459.721	0.13
460.076	0.13
460.431	0.14
460.785	0.16
461.14	0.18
461.495	0.18
461.849	0.18
462.204	0.19
462.558	0.2
462.912	0.24
463.267	0.24
463.621	0.25
463.975	0.24
464.329	0.25
464.683	0.25
465.038	0.28
465.392	0.28
465.746	0.31
466.1	0.33
466.454	0.36
466.807	0.4
467.161	0.4
467.515	0.43
467.869	0.47
468.222	0.45
468.576	0.51
468.93	0.55
469.283	0.55
469.637	0.57
469.99	0.58
470.344	0.55
470.697	0.55
471.05	0.58
471.404	0.53
471.757	0.53
472.11	0.48
472.463	0.48
472.816	0.45
473.169	0.39
473.522	0.38
473.875	0.34
474.228	0.3
474.581	0.28
474.934	0.26
475.287	0.24
475.64	0.2
475.992	0.18
476.345	0.16
476.698	0.14
477.05	0.13
477.403	0.11
477.755	0.1
478.108	0.09
478.46	0.06
478.812	0.08
479.165	0.06
479.517	0.05
479.869	0.05
480.221	0.02
480.574	0.03
480.926	0.03
481.278	0.01
481.63	0.01
481.982	0.01
482.333	-0
482.685	0.01
483.037	0.01
483.389	0.02
483.741	-0.01
484.092	-0.01
484.444	0.01
484.796	0.02
485.147	-0.01
485.499	-0
485.85	-0.01
486.201	0
486.553	-0.01
486.904	-0.03
487.255	-0.01
487.607	-0.01
487.958	-0.01
488.309	-0.01
488.66	-0.01
489.011	-0.01
489.362	-0.01
489.713	-0.02
490.064	-0.01
490.415	-0.03
490.765	-0.02
491.116	-0.01
491.467	-0.01
491.818	-0.01
492.168	0.01
492.519	-0.04
492.869	-0.02
493.22	-0.01
493.57	-0
493.921	-0.01
494.271	-0.02
494.621	-0.02
494.972	-0.02
495.322	-0.01
495.672	-0.01
496.022	-0.02
496.372	-0.02
496.722	-0.02
497.072	-0.01
497.422	-0.01
497.772	-0.04
498.122	-0.03
498.472	-0.02
498.822	-0.02
499.171	-0.02
499.521	-0.02
499.871	-0.03
500.22	-0.03
500.57	-0.01
500.919	-0.01
501.269	-0.02
501.618	-0.01
501.967	-0.02
502.317	-0.01
502.666	-0.03
503.015	-0.02
503.364	-0.01
503.713	-0.03
504.063	-0.02
504.412	-0.03
504.761	-0.03
505.11	-0.01
505.458	-0.02
505.807	-0.02
506.156	-0.02
506.505	-0.02
506.854	-0.03
507.202	-0.03
507.551	-0.03
507.899	-0
508.248	-0.02
508.596	-0.02
508.945	-0.03
509.293	-0.02
509.642	-0.03
509.99	-0.03
510.338	-0.01
510.686	-0.01
511.034	-0.03
511.383	-0.03
511.731	-0.04
512.079	-0.02
512.427	-0.03
512.775	-0.02
513.122	-0.03
513.47	-0.02
513.818	-0
514.166	-0
514.513	-0.01
514.861	-0.01
515.209	-0.04
515.556	-0.02
515.904	-0.02
516.251	-0.02
516.599	-0.03
516.946	-0.04
517.293	0.04
517.641	-0.03
517.988	-0.04
518.335	-0.03
518.682	-0.01
519.029	-0.02
519.376	-0.04
519.723	-0.02
520.07	-0
520.417	-0.03
520.764	-0.02
521.111	-0.02
521.458	-0.01
521.804	-0.02
522.151	-0.03
522.498	-0.03
522.844	-0.02
523.191	-0.02
523.537	-0.03
523.884	-0.03
524.23	-0.02
524.576	-0.02
524.923	-0.03
525.269	-0.03
525.615	-0.02
525.961	-0.02
526.307	-0.02
526.653	-0.01
526.999	-0.03
527.345	-0.03
527.691	-0.02
528.037	-0.04
528.383	-0.02
528.729	-0.03
529.075	-0.02
529.42	-0.03
529.766	-0.04
530.112	-0.03
530.457	-0.02
530.803	-0.02
531.148	-0.03
531.493	-0.02
531.839	-0.02
532.184	-0.03
532.529	-0.02
532.875	-0.03
533.22	-0.01
533.565	-0.02
533.91	-0.03
534.255	-0.03
534.6	-0.03
534.945	-0.03
535.29	-0.02
535.635	-0.01
535.98	-0.01
536.324	-0.02
536.669	-0.02
537.014	-0.01
537.358	-0.02
537.703	-0.03
538.047	-0.03
538.392	-0.03
538.736	-0.03
539.081	-0.02
539.425	-0.02
539.769	-0.02
540.113	-0.02
540.458	-0.03
540.802	-0.02
541.146	-0.01
541.49	-0.03
541.834	-0.02
542.178	-0.02
542.522	-0.03
542.866	-0.02
543.209	-0.04
543.553	-0.03
543.897	-0.03
544.241	-0.05
544.584	-0.03
544.928	-0.03
545.271	-0.02
545.615	-0.02
545.958	-0.03
546.302	-0.04
546.645	-0.02
546.988	-0.04
547.331	-0.02
547.675	-0.03
548.018	-0.03
548.361	-0.02
548.704	-0.04
549.047	-0.04
549.39	-0.01
549.733	-0.02
550.076	-0.02
550.418	-0.04
550.761	-0.02
551.104	-0.02
551.447	-0.02
551.789	-0.04
552.132	-0.06
552.474	-0.02
552.817	-0.02
553.159	-0.02
553.502	-0.03
553.844	-0.02
554.186	-0.03
554.528	-0.03
554.871	-0.03
555.213	-0.01
555.555	-0.02
555.897	-0.04
556.239	-0.03
556.581	-0.03
556.923	-0.02
557.265	-0.01
557.606	-0.02
557.948	-0.01
558.29	-0.01
558.632	-0
558.973	-0
559.315	-0.02
559.656	-0.02
559.998	-0.03
560.339	-0.03
560.68	0
561.022	0
561.363	-0.02
561.704	-0.04
562.046	-0.04
562.387	-0.02
562.728	-0.03
563.069	-0.03
563.41	-0.02
563.751	-0.02
564.092	-0.03
564.432	-0.04
564.773	-0.02
565.114	-0.01
565.455	-0.03
565.795	-0.02
566.136	-0.03
566.477	-0.03
566.817	-0.01
567.157	-0.03
567.498	-0.02
567.838	-0.03
568.179	-0.04
568.519	-0.03
568.859	-0.02
569.199	-0
569.539	-0.02
569.879	-0.03
570.219	-0.07
570.559	-0.04
570.899	-0.02
571.239	-0.02
571.579	-0.04
571.919	-0.03
572.259	-0.02
572.598	-0
572.938	-0.01
573.278	-0.07
573.617	-0.04
573.957	-0.02
574.296	-0.02
574.635	-0.06
574.975	-0.04
575.314	0.01
575.653	0.01
575.993	-0
576.332	-0.04
576.671	-0.06
577.01	-0.03
577.349	-0.02
577.688	-0.04
578.027	-0.08
578.366	-0.08
578.704	-0
579.043	0.03
579.382	0.01
579.721	-0.03
580.059	-0.04
580.398	-0.03
580.736	-0.04
581.075	-0.06
581.413	-0.07
581.752	-0.06
582.09	-0.06
582.428	0.01
582.766	0.01
583.105	0.01
583.443	-0.02
583.781	-0.04
584.119	-0.05
584.457	-0.04
584.795	-0.02
585.133	-0.02
585.47	-0.01
585.808	-0.01
586.146	-0.01
586.484	-0.03
586.821	-0.06
587.159	-0.04
587.496	-0.01
587.834	-0.02
588.171	-0.03
588.509	-0.03
588.846	-0.05
589.183	-0.02
589.521	-0.05
589.858	-0.06
590.195	-0.03
590.532	0
590.869	0.01
591.206	-0.01
591.543	-0.02
591.88	-0.06
592.217	-0.06
592.554	-0.04
592.89	-0
593.227	-0.01
593.564	-0.03
593.9	-0.06
594.237	-0.05
594.573	-0.04
594.91	-0.02
595.246	0
595.583	-0.04
595.919	-0.07
596.255	-0.03
596.592	0.01
596.928	-0.02
597.264	-0.03
597.6	-0
597.936	0.01
598.272	-0.02
598.608	-0.03
598.944	-0.03
599.279	-0.04
599.615	-0.02
599.951	-0.04
600.287	-0.06
600.622	-0.06
600.958	-0.03
601.293	0.01
601.629	0.01
601.964	-0.02
602.3	-0.06
602.635	-0.04
602.97	-0.04
603.305	-0.01
603.641	-0.02
603.976	-0.01
604.311	-0.05
604.646	-0.03
604.981	-0
605.316	0
605.651	-0.02
605.986	-0.05
606.32	-0.02
606.655	-0.03
606.99	-0.05
607.324	-0.03
607.659	-0
607.993	-0.02
608.328	-0.06
608.662	-0.03
608.997	-0.02
609.331	-0.02
609.665	-0.03
610	-0.04
610.334	-0.03
610.668	-0.01
611.002	-0
611.336	-0.03
611.67	-0.05
612.004	-0.04
612.338	-0.01
612.672	0.03
613.005	0.01
613.339	-0.01
613.673	-0.05
614.006	-0.04
614.34	-0.01
614.674	-0.01
615.007	-0.02
615.341	-0.04
615.674	-0.03
616.007	-0.02
616.341	-0.02
616.674	-0.05
617.007	-0.06
617.34	-0.03
617.673	0
618.006	0.01
618.339	-0.03
618.672	-0.07
619.005	-0.08
619.338	-0.06
619.671	0.01
620.003	0.02
620.336	-0.01
620.669	-0.05
621.001	-0.03
621.334	-0.03
621.666	-0.05
621.999	-0.03
622.331	0.01
622.663	-0.02
622.996	-0.03
623.328	-0.01
623.66	-0.02
623.992	-0.04
624.324	-0.04
624.656	-0.02
624.988	0.02
625.32	0
625.652	-0.03
625.984	-0.07
626.316	-0.06
626.647	-0.04
626.979	0.02
627.311	-0
627.642	-0.01
627.974	-0.02
628.305	-0.03
628.637	-0.01
628.968	-0.02
629.299	-0.01
629.631	-0.07
629.962	-0.06
630.293	-0.02
630.624	-0.01
630.955	-0.03
631.286	-0.06
631.617	-0.04
631.948	-0
632.279	-0.02
632.61	-0.02
632.941	-0.02
633.271	-0.08
633.602	-0.04
633.932	-0.01
634.263	0.01
634.594	-0.01
634.924	-0.02
635.254	-0.02
635.585	-0.07
635.915	-0.01
636.245	-0.03
636.576	-0.03
636.906	0.02
637.236	-0.05
637.566	-0
637.896	-0.05
638.226	0
638.556	-0
638.886	-0.02
639.215	-0.02
639.545	0.02
639.875	0
640.204	-0.05
640.534	-0.09
640.864	-0.05
641.193	-0.01
641.522	-0.01
641.852	-0.02
642.181	-0.02
642.511	-0.06
642.84	-0.03
643.169	-0.02
643.498	-0.06
643.827	-0.02
644.156	0.01
644.485	-0.01
644.814	-0.04
645.143	-0.08
645.472	-0.07
645.801	-0.02
646.129	0.03
646.458	0.02
646.787	-0
647.115	-0.01
647.444	0.03
647.772	-0.05
648.101	-0.04
648.429	-0.08
648.757	-0.04
649.085	-0.02
649.414	-0.04
649.742	-0.04
650.07	-0.09
650.398	-0.04
650.726	-0.03
651.054	-0
651.382	-0
651.71	-0.02
652.038	-0.13
652.365	-0.07
652.693	-0.3
653.021	-0.41
653.348	-0.14
653.676	0.1
654.003	0.14
654.331	0.05
654.658	-0.14
654.985	-0.17
655.313	-0.11
655.64	-0.08
655.967	-0.01
656.294	-0
656.621	-0.04
656.948	-0.08
657.275	-0.09
657.602	-0.06
657.929	-0.04
658.256	-0.09
658.583	-0.03
658.909	-0.07
659.236	-0.03
659.563	0.03
659.889	-0.04
660.216	0.03
660.542	0.02
660.869	-0.06
661.195	0.01
661.521	-0
661.847	-0.02
662.174	-0.02
662.5	-0.01
662.826	-0.01
663.152	-0.04
663.478	0.05
663.804	0.04
664.13	-0.03
664.456	-0.01
664.781	-0.03
665.107	-0.05
665.433	-0.02
665.758	-0.05
666.084	0.01
666.41	0.01
666.735	-0.01
667.06	0.01
667.386	0
667.711	-0.06
668.036	-0.02
668.362	-0.06
668.687	-0.08
669.012	-0.08
669.337	-0.03
669.662	-0
669.987	0.03
670.312	0.04
670.637	-0
670.961	-0.03
671.286	-0.06
671.611	-0.05
671.935	-0.04
672.26	-0.08
672.585	-0.02
672.909	-0.02
673.233	-0.06
673.558	-0.01
673.882	-0.01
674.206	-0.04
674.531	-0.04
674.855	-0.05
675.179	-0.04
675.503	-0.04
675.827	0.03
676.151	0
676.475	-0.06
676.799	-0.02
677.123	-0
677.446	-0.02
677.77	0.04
678.094	-0.04
678.417	-0.06
678.741	-0.09
679.064	-0.01
679.388	-0.02
679.711	0.05
680.034	-0.02
680.358	0
680.681	-0.05
681.004	-0.08
681.327	-0.04
681.65	-0.06
681.973	-0
682.296	-0.02
682.619	-0.02
682.942	-0.07
683.265	-0
683.587	0.04
683.91	-0.01
684.233	-0.06
684.555	-0.09
684.878	-0.06
685.2	-0.03
685.523	0.01
685.845	-0.01
686.168	-0.04
686.49	-0.05
686.812	-0.09
687.134	-0.05
687.456	-0.02
687.778	0.04
688.1	-0.07
688.422	-0.08
688.744	-0.03
689.066	-0.04
689.388	0.01
689.71	-0.01
690.031	-0.05
690.353	-0.05
690.675	-0.08
690.996	-0.03
691.318	0.02
691.639	0.02
691.96	-0.01
692.282	-0.07
692.603	-0.04
692.924	-0.03
693.245	0.07
693.566	0.03
693.887	-0.06
694.208	-0.18
694.529	-0.07
694.85	0.04
695.171	0.06
695.492	0.06
695.813	0
696.133	-0.1
696.454	-0.05
696.775	0.01
697.095	-0.05
697.416	-0.09
697.736	-0.05
698.056	-0.05
698.377	-0.06
698.697	-0.04
699.017	-0.05
699.337	-0.07
699.657	-0.1
699.977	-0.06
700.297	0.02
700.617	0.04
700.937	0.04
701.257	-0.03
701.577	-0.05
701.897	-0.08
702.216	-0.03
702.536	0.01
702.855	-0.01
703.175	-0.04
703.494	-0.1
703.814	-0.15
704.133	-0.11
704.452	-0.05
704.772	-0.01
705.091	0.02
705.41	-0.02
705.729	-0
706.048	-0.03
706.367	-0.01
706.686	-0.06
707.005	-0.02
707.324	-0
707.642	-0.07
707.961	-0.04
708.28	-0.08
708.598	0.05
708.917	0.05
709.235	-0.02
709.554	-0.14
709.872	-0.11
710.191	-0.05
710.509	-0.03
710.827	-0.03
711.145	0.02
711.463	-0.01
711.781	-0.02
712.099	-0.04
712.417	-0.02
712.735	-0.02
713.053	-0.04
713.371	-0.01
713.689	-0.02
714.006	-0.04
714.324	-0.09
714.642	-0.05
714.959	-0.07
715.277	-0.03
715.594	-0.03
715.911	-0.09
716.229	0.03
716.546	-0.04
716.863	-0.06
717.18	-0.04
717.497	0
717.814	-0.05
718.131	-0.07
718.448	-0.09
718.765	-0.05
719.082	0
719.399	-0.08
719.715	-0.07
720.032	-0.03
720.349	-0.04
720.665	-0.07
720.982	-0.03
721.298	-0.01
721.615	-0.02
721.931	-0.06
722.247	-0
722.563	-0.06
722.88	-0.03
723.196	0.03
723.512	-0.01
723.828	-0.01
724.144	-0.04
724.46	-0.02
724.775	-0.03
725.091	-0.01
725.407	-0.07
725.723	-0.01
726.038	0.02
726.354	-0
726.669	0
726.985	-0.1
727.3	-0.04
727.616	-0.06
727.931	-0.09
728.246	-0.09
728.561	-0.05
728.876	0.01
729.192	0.03
729.507	0.01
729.822	-0.04
730.136	-0.06
730.451	-0.1
730.766	0.01
731.081	-0.03
731.396	-0.06
731.71	-0.05
732.025	-0.01
732.339	0.01
732.654	-0.01
732.968	-0.05
733.283	-0.06
733.597	-0.02
733.911	-0.01
734.225	-0.06
734.54	-0.06
734.854	-0
735.168	-0.02
735.482	-0.02
735.796	-0.03
736.11	-0.09
736.423	-0.09
736.737	-0.06
737.051	0.03
737.364	0.03
737.678	0.01
737.992	-0.04
738.305	-0.05
738.619	-0.06
738.932	-0.07
739.245	-0.06
739.559	-0.05
739.872	-0.1
740.185	-0.01
740.498	0.04
740.811	0.06
741.124	-0.01
741.437	-0.01
741.75	-0.1
742.063	-0.12
742.376	-0.05
742.688	-0.07
743.001	-0
743.314	-0.06
743.626	0.01
743.939	0.06
744.251	-0.02
744.564	-0.07
744.876	-0.11
745.188	0.05
745.5	0.02
745.813	-0.1
746.125	-0.06
746.437	-0.03
746.749	-0.04
747.061	-0.04
747.373	-0.03
747.684	-0.02
747.996	-0.07
748.308	-0.03
748.62	-0.04
748.931	-0.16
749.243	-0.06
749.554	-0.02
749.866	-0.06
750.177	-0.08
750.489	0.01
750.8	-0.03
751.111	-0.02
751.422	0.01
751.733	0.03
752.044	-0.03
752.355	-0.1
752.666	-0.13
752.977	-0.11
753.288	-0.11
753.599	-0.11
753.91	-0.03
754.22	-0.01
754.531	-0.03
754.842	-0.01
755.152	0.01
755.463	0.04
755.773	0.03
756.083	0.01
756.394	-0.03
756.704	-0.07
757.014	-0.07
757.324	-0.03
757.634	-0.05
757.944	-0.03
758.254	-0.02
758.564	-0.01
758.874	0.01
759.184	0.03
759.493	-0.03
759.803	-0.03
760.113	-0.04
760.422	-0.08
760.732	-0.04
761.041	-0.03
761.351	-0.04
761.66	-0.05
761.969	-0.01
762.279	-0.05
762.588	-0.03
762.897	-0.01
763.206	-0.01
763.515	-0.03
763.824	-0.02
764.133	-0.03
764.442	-0.01
764.75	-0.1
765.059	0.01
765.368	-0.1
765.676	-0.12
765.985	-0.02
766.293	0.03
766.602	0.02
766.91	0.01
767.219	-0.01
767.527	0.02
767.835	-0.01
768.143	-0.08
768.451	-0.14
768.76	-0.02
769.068	-0.02
769.375	0.04
769.683	-0.05
769.991	-0.01
770.299	-0.09
770.607	-0.03
770.914	-0.01
771.222	0.03
771.53	0.01
771.837	0.05
772.144	0.04
772.452	-0.04
772.759	-0.09
773.066	-0.03
773.374	-0.08
773.681	-0.16
773.988	-0.24
774.295	0.05
774.602	-0.06
774.909	-0.38
775.216	-0.06
775.523	0.14
775.829	0.02
776.136	-0.06
776.443	-0.06
776.749	0.16
777.056	0.09
777.362	0.06
777.669	-0.03
777.975	-0
778.281	0.03
778.588	-0.17
778.894	-0.11
779.2	0.04
779.506	0.01
779.812	0.03
780.118	-0.03
780.424	-0.02
780.73	-0.08
781.036	-0.01
781.341	-0.13
781.647	0
781.953	0.01
782.258	0
782.564	-0.01
782.869	0.04
783.175	-0.08
783.48	-0.13
783.785	-0.13
784.091	-0.04
784.396	-0.07
784.701	0.1
785.006	0.01
785.311	-0.05
785.616	-0.03
785.921	-0.01
786.226	-0.18
786.53	0.02
786.835	0.04
787.14	-0.03
787.444	-0.05
787.749	-0.07
788.053	-0.22
788.358	0.02
788.662	0.12
788.967	-0.09
789.271	0.08
789.575	0.02
789.879	-0.05
790.183	-0.03
790.487	-0.19
790.791	-0.13
791.095	-0.08
791.399	-0.06
791.703	-0.13
792.007	-0.12
792.31	-0.03
792.614	-0.04
792.918	-0.04
793.221	-0.06
793.525	-0.14
793.828	-0.02
794.131	-0.01
794.435	-0.12
794.738	-0.25
795.041	-0.11
795.344	0.26
795.647	-0.38
795.95	-0.1
796.253	0.12
796.556	-0.09
796.859	-0.18
797.162	0.12
797.465	-0.06
797.767	-0.24
798.07	-0.08
798.372	-0.02
798.675	-0.04
798.977	-0.01
799.28	0.12
799.582	-0.07
799.884	-0
800.186	0.53
800.489	-0.12
800.791	-0
801.093	-1.26
801.395	-0.21
801.697	-0.27
801.999	-0.35
802.3	-0
802.602	0.45
802.904	-0.08
803.205	-0.03
803.507	-0.07
803.809	-0.38
804.11	-0.08
804.411	-0.03
804.713	0.2
805.014	-0.2
805.315	0.2
805.616	0.19
805.918	-0.21
806.219	-0.24
806.52	0.13
806.821	0.05
807.121	-0.01
807.422	0.13
807.723	-0
808.024	0.18
808.324	-0.46
808.625	-0.49
808.926	-0.16
809.226	-0.06
809.526	-0
809.827	-0.76
810.127	-0
810.427	-0.19
810.728	-0.88
811.028	-0
811.328	-1.14
811.628	-0.04
811.928	-0.05
812.228	-0.41
812.527	-0
812.827	0.05
813.127	-0.12
813.427	-0.21
813.726	-0.54
814.026	-0.03
814.325	0.17
814.625	-0.38
814.924	-0.92
815.223	-0.08
815.523	-1.07
815.822	-1.28
816.121	0.35
816.42	0.01
816.719	0.13
817.018	-0
817.317	0.63
817.616	0.25
817.915	-0.06
818.214	-0
818.512	-0.11
818.811	-0.07
819.109	-0
819.408	0.27
819.706	-0.49
820.005	-0
820.303	0.17
820.601	0.17
820.9	0.21
821.198	-0.49
821.496	-0.17
821.794	-2.26
822.092	-0.36
822.39	-0
822.688	0.22
822.985	0.07
823.283	-0
823.581	0.14
823.879	0.39
824.176	0.28
824.474	0.44
824.771	-0
825.068	0.4
825.366	-0.23
825.663	1.16
825.96	-0.46
826.257	-0.03
826.555	0.04
826.852	-0
827.149	-0.07
827.446	0.08
827.742	0.08
828.039	0.66
828.336	0.22
828.633	-0.09
828.929	-0.12
829.226	-0.87
829.522	3.35
829.819	-0.03
830.115	-0.2
830.412	0.12
830.708	-0
831.004	-0.01
831.3	0.47
831.596	0.32
831.892	0.09
832.188	0.93
832.484	0.67
832.78	-0
833.076	0.12
833.372	0.25
833.668	0.33
833.963	-0.09
834.259	-0
834.554	0.13
834.85	0.25
835.145	0.09
835.441	1.08
835.736	0.35
836.031	-0.41
836.326	-0.83
836.621	0.02
836.916	0.35
837.211	0.11
837.506	-0.89
837.801	0.23
838.096	-0.26
838.391	0.15
838.685	-0
838.98	-0.08
839.275	-1.11
839.569	-0.2
839.864	0.28
840.158	-0
840.452	0.08
840.747	0.01
841.041	-0
841.335	-0
841.629	-0
841.923	-0.44
842.217	-0
842.511	0
842.805	1.26
843.099	0.51
843.393	-0.02
843.686	-0.72
843.98	-0
844.273	-0
844.567	-0
844.86	-0
845.154	0.79
845.447	-0.18
845.74	0.74
846.034	0.08
846.327	0.27
846.62	0.41
846.913	-0
847.206	0.13
847.499	0.35
847.792	0.24
848.084	-0.16
848.377	-0.09
848.67	0.41
848.962	0.23
849.255	-0
849.548	0.5
849.84	-0.01
850.132	-0
850.425	-0
850.717	1.41
851.009	0.31
851.301	0.74
851.593	-0
851.885	-0
852.177	-0
852.469	0.08
852.761	-0.67
853.053	0.13
853.345	-0.15
853.636	-0
853.928	1.45
854.219	-0
854.511	0.04
854.802	-0
855.094	-0
855.385	1.47
855.676	-0.14
855.967	-0
856.259	0.2
856.55	-0.23
856.841	-0
857.132	0.18
857.423	-0.36
857.713	-0.26
858.004	0.14
858.295	0.53
858.585	-0
858.876	0.67
859.167	0.04
859.457	-0.16
859.747	1.31
860.038	-0.49
860.328	0.61
860.618	-0.25
860.909	-0.48
861.199	0.41
861.489	-0.2
861.779	-0.32
862.069	-0
862.358	0
862.648	-0.07
862.938	-0.04
863.228	-0.34
863.517	0.03
863.807	-0
864.096	-1.61
864.386	-0
864.675	-0.16
864.965	-0.2
865.254	0.32
865.543	0.14
865.832	-0
866.121	-0.27
866.41	-0
866.699	-0.13
866.988	-0
867.277	-0.16
867.566	0.36
867.855	0.4
868.143	-0.07
868.432	-0.06
868.72	-0
869.009	0.02
869.297	-0
869.586	-0.17
869.874	0.13
870.162	0.46
870.45	-0.42
870.739	-1.08
871.027	-0.84
871.315	-0
871.603	-0
871.89	-0.03
872.178	0.75
872.466	-0
872.754	-1.11
873.041	0.04
873.329	0.15
873.616	0.16
873.904	-0.03
874.191	-0
874.479	-0.05
874.766	-0.1
875.053	-0.07
