Data from VictorTetra_Absorbance__4__00004.txt Node

Date: Thu Oct 10 15:44:19 EDT 2024
User: earladmin
Spectrometer: FLCH01037
Trigger mode: 0
Integration Time (sec): 1.000000E-1
Scans to average: 5
Electric dark correction enabled: true
Nonlinearity correction enabled: false
Boxcar width: 2
XAxis mode: Wavelengths
Number of Pixels in Spectrum: 2048
>>>>>Begin Spectral Data<<<<<
178.246	0.14
178.631	0.54
179.016	0.82
179.401	0.2
179.785	0.12
180.17	-0.65
180.554	1.17
180.939	0.03
181.323	0.03
181.708	-0.03
182.092	-0
182.477	-0.1
182.861	-0
183.245	-0.24
183.63	0.15
184.014	-0
184.398	-0.2
184.782	-0.15
185.167	-0.03
185.551	-0.22
185.935	0.22
186.319	-0.06
186.703	-0.28
187.087	-0.26
187.471	-0
187.855	-0.58
188.238	-0.41
188.622	-0
189.006	0.24
189.39	-0.16
189.774	0.1
190.157	-0
190.541	-0.14
190.925	0.02
191.308	0.5
191.692	0.44
192.075	-0
192.459	-0.84
192.842	-0
193.226	-0
193.609	-0.55
193.992	0.59
194.376	0.47
194.759	-0
195.142	0.13
195.525	0.18
195.909	1.12
196.292	0.19
196.675	-0
197.058	0.13
197.441	-0
197.824	0.14
198.207	-0
198.59	-0.09
198.973	0.08
199.356	0.32
199.738	0.57
200.121	0.35
200.504	-0
200.887	-0
201.269	0.27
201.652	-0
202.035	0
202.417	0.99
202.8	-0.44
203.182	0.02
203.565	0.48
203.947	-0
204.329	1.08
204.712	-0.17
205.094	-0
205.476	0.45
205.859	-0.08
206.241	0.78
206.623	0.31
207.005	0.28
207.387	0.17
207.769	-0.58
208.151	-0
208.533	-0
208.915	0.03
209.297	-0.01
209.679	0.34
210.061	0.79
210.443	-0
210.825	-0
211.206	0.33
211.588	-0.86
211.97	1.5
212.351	0.25
212.733	0.65
213.115	-0
213.496	0.21
213.878	0.55
214.259	0.55
214.641	-0
215.022	-0
215.403	1.44
215.785	-0
216.166	-0.74
216.547	-0
216.928	-0
217.31	-0
217.691	0.55
218.072	-0.15
218.453	-0
218.834	-0.19
219.215	0.05
219.596	0.91
219.977	0.74
220.358	-0.27
220.739	0.36
221.119	-0.04
221.5	-0.27
221.881	1.03
222.262	0.23
222.642	0.57
223.023	-0
223.403	-0.33
223.784	0.38
224.165	-0
224.545	0.07
224.926	-0
225.306	-0.04
225.686	0.23
226.067	-0.17
226.447	0.44
226.827	0.53
227.207	0.37
227.588	-0
227.968	-0
228.348	1.21
228.728	0.66
229.108	0.29
229.488	1.18
229.868	-1.09
230.248	0.52
230.628	0.31
231.008	-0
231.388	-0
231.767	0.28
232.147	-0.19
232.527	0.33
232.907	0.22
233.286	0.41
233.666	-0
234.046	-0
234.425	-0
234.805	0.24
235.184	0.62
235.564	0.09
235.943	0.08
236.322	0.1
236.702	0.17
237.081	-0.09
237.46	0.88
237.839	-0.02
238.219	0.48
238.598	0.26
238.977	0.3
239.356	0.59
239.735	-0.03
240.114	-0
240.493	0.17
240.872	0.37
241.251	0.38
241.629	0.27
242.008	0.63
242.387	0.41
242.766	0.31
243.145	-0.07
243.523	0.29
243.902	0.39
244.28	-0
244.659	-0
245.037	0.67
245.416	-0
245.794	0.81
246.173	-0
246.551	0.54
246.93	0.41
247.308	0.88
247.686	-0
248.064	1.02
248.442	-0
248.821	1.19
249.199	1.3
249.577	0.8
249.955	0.58
250.333	0.56
250.711	-0
251.089	0.8
251.467	-0
251.844	0.62
252.222	0.37
252.6	0.87
252.978	2.68
253.356	0.61
253.733	-0
254.111	1.14
254.488	0.69
254.866	0.94
255.243	1.19
255.621	1.11
255.998	0.58
256.376	1.23
256.753	3.3
257.13	-0
257.508	0.8
257.885	-0
258.262	-0
258.639	0.97
259.017	0.76
259.394	-0
259.771	1.48
260.148	-0
260.525	1.78
260.902	-0
261.279	1.28
261.656	0.86
262.032	1.22
262.409	0.85
262.786	1.23
263.163	0.83
263.539	2.14
263.916	2.57
264.293	1.62
264.669	1.02
265.046	0.98
265.422	1.34
265.799	-0
266.175	1.13
266.552	1.75
266.928	2.37
267.304	1.55
267.681	1.13
268.057	1.36
268.433	1.52
268.809	-0
269.185	-0
269.561	1.74
269.937	1.26
270.313	1.35
270.689	-0
271.065	1.62
271.441	1.49
271.817	-0
272.193	-0
272.569	1.06
272.945	1.52
273.32	-0
273.696	-0
274.072	1.15
274.447	-0
274.823	-0
275.198	-0
275.574	1.34
275.949	1.17
276.325	1.33
276.7	1.13
277.075	1.39
277.451	2.22
277.826	1.35
278.201	-0
278.576	1.37
278.951	1.4
279.326	1.25
279.702	1.59
280.077	1.49
280.452	-0
280.827	1.73
281.201	3.61
281.576	1.67
281.951	2.34
282.326	-0
282.701	1.71
283.075	1.51
283.45	1.52
283.825	1.75
284.199	1.74
284.574	1.44
284.949	2.4
285.323	1.59
285.697	-0
286.072	2.33
286.446	1.84
286.821	1.52
287.195	1.81
287.569	1.72
287.943	-0
288.318	1.99
288.692	1.53
289.066	-0
289.44	2.15
289.814	2.34
290.188	1.88
290.562	1.75
290.936	1.68
291.31	-0
291.684	2.45
292.057	1.91
292.431	1.47
292.805	2.27
293.179	2.86
293.552	1.88
293.926	1.87
294.299	-0
294.673	1.64
295.046	1.55
295.42	-0
295.793	2.14
296.167	1.66
296.54	1.72
296.913	1.93
297.287	-0
297.66	-0
298.033	-0
298.406	2.2
298.779	2.27
299.152	1.62
299.525	2.8
299.898	2.59
300.271	2.07
300.644	1.44
301.017	1.69
301.39	1.85
301.763	1.63
302.136	1.5
302.508	1.57
302.881	1.68
303.254	1.5
303.626	1.37
303.999	1.39
304.371	1.46
304.744	1.41
305.116	1.44
305.489	1.42
305.861	1.52
306.233	1.35
306.606	1.47
306.978	1.33
307.35	1.27
307.722	1.29
308.095	1.58
308.467	1.39
308.839	1.33
309.211	1.38
309.583	1.51
309.955	1.22
310.327	1.36
310.698	1.65
311.07	1.25
311.442	1.54
311.814	1.22
312.185	1.34
312.557	1.54
312.929	1.56
313.3	1.21
313.672	1.53
314.043	1.38
314.415	1.35
314.786	1.17
315.158	1.33
315.529	1.22
315.9	1.17
316.272	1.26
316.643	1.22
317.014	1.16
317.385	1.16
317.756	1.05
318.127	1.08
318.499	1.01
318.87	1.06
319.24	1.03
319.611	1.06
319.982	1.01
320.353	1
320.724	0.92
321.095	0.88
321.465	0.89
321.836	0.83
322.207	0.82
322.577	0.82
322.948	0.82
323.318	0.79
323.689	0.74
324.059	0.7
324.43	0.68
324.8	0.7
325.171	0.66
325.541	0.67
325.911	0.68
326.281	0.59
326.651	0.65
327.022	0.58
327.392	0.59
327.762	0.57
328.132	0.51
328.502	0.53
328.872	0.5
329.242	0.49
329.611	0.5
329.981	0.48
330.351	0.48
330.721	0.45
331.09	0.45
331.46	0.43
331.83	0.4
332.199	0.41
332.569	0.41
332.938	0.39
333.308	0.36
333.677	0.38
334.047	0.33
334.416	0.34
334.785	0.34
335.154	0.33
335.524	0.31
335.893	0.33
336.262	0.34
336.631	0.32
337	0.31
337.369	0.32
337.738	0.31
338.107	0.3
338.476	0.3
338.845	0.3
339.214	0.3
339.582	0.28
339.951	0.29
340.32	0.26
340.689	0.29
341.057	0.26
341.426	0.26
341.794	0.28
342.163	0.28
342.531	0.27
342.9	0.26
343.268	0.28
343.636	0.27
344.005	0.26
344.373	0.29
344.741	0.28
345.109	0.27
345.477	0.28
345.845	0.27
346.214	0.29
346.582	0.27
346.95	0.27
347.317	0.28
347.685	0.28
348.053	0.28
348.421	0.28
348.789	0.28
349.156	0.29
349.524	0.3
349.892	0.3
350.259	0.31
350.627	0.33
350.995	0.3
351.362	0.32
351.729	0.32
352.097	0.32
352.464	0.34
352.832	0.35
353.199	0.35
353.566	0.32
353.933	0.35
354.3	0.36
354.668	0.36
355.035	0.38
355.402	0.38
355.769	0.36
356.136	0.38
356.503	0.4
356.869	0.4
357.236	0.41
357.603	0.42
357.97	0.4
358.337	0.41
358.703	0.4
359.07	0.41
359.436	0.41
359.803	0.4
360.17	0.41
360.536	0.4
360.902	0.4
361.269	0.4
361.635	0.42
362.001	0.41
362.368	0.46
362.734	0.45
363.1	0.44
363.466	0.45
363.832	0.45
364.198	0.46
364.564	0.46
364.93	0.46
365.296	0.48
365.662	0.51
366.028	0.48
366.394	0.5
366.76	0.48
367.125	0.51
367.491	0.5
367.857	0.51
368.222	0.52
368.588	0.55
368.953	0.51
369.319	0.53
369.684	0.54
370.05	0.54
370.415	0.55
370.781	0.58
371.146	0.58
371.511	0.57
371.876	0.57
372.241	0.6
372.607	0.6
372.972	0.62
373.337	0.59
373.702	0.59
374.067	0.61
374.431	0.65
374.796	0.62
375.161	0.61
375.526	0.6
375.891	0.6
376.255	0.64
376.62	0.64
376.985	0.64
377.349	0.66
377.714	0.64
378.078	0.65
378.443	0.63
378.807	0.63
379.172	0.63
379.536	0.63
379.9	0.63
380.264	0.62
380.629	0.68
380.993	0.69
381.357	0.66
381.721	0.65
382.085	0.69
382.449	0.7
382.813	0.65
383.177	0.64
383.541	0.65
383.905	0.66
384.268	0.7
384.632	0.69
384.996	0.7
385.359	0.7
385.723	0.69
386.087	0.72
386.45	0.72
386.814	0.73
387.177	0.7
387.541	0.74
387.904	0.71
388.267	0.72
388.631	0.72
388.994	0.74
389.357	0.73
389.72	0.74
390.083	0.73
390.446	0.73
390.809	0.73
391.172	0.75
391.535	0.79
391.898	0.76
392.261	0.74
392.624	0.73
392.987	0.76
393.35	0.78
393.712	0.73
394.075	0.72
394.437	0.73
394.8	0.7
395.163	0.75
395.525	0.73
395.888	0.69
396.25	0.73
396.612	0.67
396.975	0.66
397.337	0.67
397.699	0.69
398.061	0.65
398.424	0.69
398.786	0.65
399.148	0.68
399.51	0.64
399.872	0.64
400.234	0.61
400.596	0.62
400.957	0.62
401.319	0.63
401.681	0.63
402.043	0.59
402.404	0.58
402.766	0.59
403.128	0.6
403.489	0.61
403.851	0.58
404.212	0.56
404.574	0.59
404.935	0.59
405.296	0.55
405.658	0.57
406.019	0.56
406.38	0.54
406.741	0.56
407.103	0.54
407.464	0.56
407.825	0.57
408.186	0.57
408.547	0.59
408.908	0.57
409.268	0.57
409.629	0.56
409.99	0.54
410.351	0.57
410.712	0.6
411.072	0.59
411.433	0.58
411.793	0.59
412.154	0.58
412.515	0.6
412.875	0.59
413.235	0.59
413.596	0.59
413.956	0.57
414.316	0.59
414.677	0.59
415.037	0.56
415.397	0.53
415.757	0.51
416.117	0.51
416.477	0.51
416.837	0.51
417.197	0.5
417.557	0.49
417.917	0.46
418.277	0.44
418.637	0.44
418.996	0.41
419.356	0.41
419.716	0.4
420.075	0.37
420.435	0.35
420.794	0.32
421.154	0.32
421.513	0.3
421.873	0.29
422.232	0.3
422.591	0.27
422.95	0.27
423.31	0.25
423.669	0.24
424.028	0.26
424.387	0.25
424.746	0.21
425.105	0.23
425.464	0.22
425.823	0.19
426.182	0.21
426.541	0.2
426.899	0.2
427.258	0.18
427.617	0.2
427.976	0.21
428.334	0.19
428.693	0.2
429.051	0.19
429.41	0.2
429.768	0.17
430.127	0.2
430.485	0.2
430.843	0.21
431.202	0.21
431.56	0.23
431.918	0.24
432.276	0.24
432.634	0.23
432.992	0.26
433.35	0.26
433.708	0.28
434.066	0.28
434.424	0.28
434.782	0.28
435.14	0.33
435.497	0.35
435.855	0.36
436.213	0.37
436.57	0.38
436.928	0.41
437.285	0.44
437.643	0.47
438	0.43
438.358	0.49
438.715	0.51
439.072	0.49
439.43	0.5
439.787	0.54
440.144	0.51
440.501	0.54
440.858	0.5
441.215	0.52
441.572	0.51
441.929	0.49
442.286	0.46
442.643	0.46
443	0.45
443.357	0.43
443.714	0.41
444.07	0.41
444.427	0.37
444.783	0.37
445.14	0.34
445.497	0.33
445.853	0.29
446.209	0.28
446.566	0.26
446.922	0.25
447.279	0.22
447.635	0.22
447.991	0.18
448.347	0.18
448.703	0.16
449.059	0.14
449.415	0.14
449.771	0.13
450.127	0.11
450.483	0.12
450.839	0.12
451.195	0.12
451.551	0.1
451.906	0.11
452.262	0.11
452.618	0.1
452.973	0.1
453.329	0.09
453.685	0.08
454.04	0.11
454.395	0.08
454.751	0.09
455.106	0.07
455.461	0.07
455.817	0.08
456.172	0.08
456.527	0.1
456.882	0.1
457.237	0.1
457.592	0.07
457.947	0.09
458.302	0.13
458.657	0.13
459.012	0.11
459.367	0.12
459.721	0.13
460.076	0.13
460.431	0.14
460.785	0.16
461.14	0.18
461.495	0.18
461.849	0.18
462.204	0.2
462.558	0.21
462.912	0.24
463.267	0.24
463.621	0.25
463.975	0.24
464.329	0.25
464.683	0.25
465.038	0.28
465.392	0.29
465.746	0.32
466.1	0.34
466.454	0.36
466.807	0.4
467.161	0.4
467.515	0.42
467.869	0.47
468.222	0.46
468.576	0.51
468.93	0.55
469.283	0.55
469.637	0.57
469.99	0.58
470.344	0.55
470.697	0.55
471.05	0.58
471.404	0.52
471.757	0.52
472.11	0.47
472.463	0.48
472.816	0.45
473.169	0.39
473.522	0.38
473.875	0.34
474.228	0.3
474.581	0.28
474.934	0.26
475.287	0.24
475.64	0.2
475.992	0.18
476.345	0.15
476.698	0.14
477.05	0.12
477.403	0.11
477.755	0.09
478.108	0.09
478.46	0.06
478.812	0.07
479.165	0.06
479.517	0.05
479.869	0.04
480.221	0.02
480.574	0.03
480.926	0.03
481.278	0.01
481.63	0.02
481.982	0.02
482.333	-0
482.685	0.01
483.037	0.01
483.389	0.02
483.741	-0.01
484.092	-0.01
484.444	0.01
484.796	0.02
485.147	-0.01
485.499	-0
485.85	-0.01
486.201	0
486.553	-0.01
486.904	-0.02
487.255	-0.01
487.607	-0.01
487.958	-0.02
488.309	-0.01
488.66	-0.02
489.011	-0.01
489.362	-0.01
489.713	-0.02
490.064	-0.01
490.415	-0.03
490.765	-0.02
491.116	-0.01
491.467	-0.01
491.818	-0.01
492.168	0.01
492.519	-0.04
492.869	-0.01
493.22	-0.01
493.57	-0
493.921	-0.01
494.271	-0.02
494.621	-0.02
494.972	-0.02
495.322	-0.01
495.672	-0.01
496.022	-0.02
496.372	-0.02
496.722	-0.02
497.072	-0.01
497.422	-0.01
497.772	-0.05
498.122	-0.04
498.472	-0.02
498.822	-0.02
499.171	-0.02
499.521	-0.02
499.871	-0.02
500.22	-0.03
500.57	-0.01
500.919	-0.01
501.269	-0.02
501.618	-0.01
501.967	-0.02
502.317	-0.01
502.666	-0.03
503.015	-0.02
503.364	-0.01
503.713	-0.03
504.063	-0.02
504.412	-0.03
504.761	-0.03
505.11	-0.01
505.458	-0.02
505.807	-0.02
506.156	-0.02
506.505	-0.02
506.854	-0.02
507.202	-0.03
507.551	-0.03
507.899	-0
508.248	-0.01
508.596	-0.02
508.945	-0.03
509.293	-0.02
509.642	-0.03
509.99	-0.03
510.338	-0.01
510.686	-0.01
511.034	-0.03
511.383	-0.02
511.731	-0.03
512.079	-0.02
512.427	-0.02
512.775	-0.02
513.122	-0.03
513.47	-0.02
513.818	-0
514.166	-0
514.513	-0.01
514.861	-0.01
515.209	-0.04
515.556	-0.02
515.904	-0.02
516.251	-0.01
516.599	-0.03
516.946	-0.04
517.293	0.04
517.641	-0.03
517.988	-0.04
518.335	-0.04
518.682	-0.01
519.029	-0.02
519.376	-0.04
519.723	-0.02
520.07	-0
520.417	-0.03
520.764	-0.02
521.111	-0.02
521.458	-0.01
521.804	-0.02
522.151	-0.03
522.498	-0.03
522.844	-0.02
523.191	-0.02
523.537	-0.03
523.884	-0.03
524.23	-0.02
524.576	-0.02
524.923	-0.02
525.269	-0.03
525.615	-0.02
525.961	-0.02
526.307	-0.02
526.653	-0.01
526.999	-0.04
527.345	-0.03
527.691	-0.02
528.037	-0.04
528.383	-0.02
528.729	-0.02
529.075	-0.02
529.42	-0.03
529.766	-0.04
530.112	-0.03
530.457	-0.02
530.803	-0.02
531.148	-0.03
531.493	-0.02
531.839	-0.02
532.184	-0.03
532.529	-0.01
532.875	-0.02
533.22	-0.01
533.565	-0.02
533.91	-0.03
534.255	-0.03
534.6	-0.03
534.945	-0.03
535.29	-0.02
535.635	-0.01
535.98	-0.01
536.324	-0.02
536.669	-0.02
537.014	-0.01
537.358	-0.02
537.703	-0.03
538.047	-0.02
538.392	-0.03
538.736	-0.02
539.081	-0.02
539.425	-0.02
539.769	-0.02
540.113	-0.02
540.458	-0.03
540.802	-0.02
541.146	-0.01
541.49	-0.03
541.834	-0.02
542.178	-0.02
542.522	-0.03
542.866	-0.01
543.209	-0.03
543.553	-0.03
543.897	-0.03
544.241	-0.04
544.584	-0.03
544.928	-0.03
545.271	-0.01
545.615	-0.01
545.958	-0.03
546.302	-0.03
546.645	-0.02
546.988	-0.04
547.331	-0.02
547.675	-0.03
548.018	-0.03
548.361	-0.02
548.704	-0.04
549.047	-0.04
549.39	-0.01
549.733	-0.02
550.076	-0.02
550.418	-0.04
550.761	-0.02
551.104	-0.02
551.447	-0.02
551.789	-0.03
552.132	-0.05
552.474	-0.01
552.817	-0.01
553.159	-0.01
553.502	-0.03
553.844	-0.02
554.186	-0.03
554.528	-0.03
554.871	-0.03
555.213	-0.01
555.555	-0.02
555.897	-0.03
556.239	-0.02
556.581	-0.03
556.923	-0.02
557.265	-0.01
557.606	-0.02
557.948	-0.02
558.29	-0.02
558.632	-0
558.973	-0.01
559.315	-0.02
559.656	-0.02
559.998	-0.03
560.339	-0.03
560.68	-0
561.022	-0
561.363	-0.02
561.704	-0.04
562.046	-0.04
562.387	-0.02
562.728	-0.03
563.069	-0.03
563.41	-0.02
563.751	-0.02
564.092	-0.03
564.432	-0.04
564.773	-0.02
565.114	-0.01
565.455	-0.03
565.795	-0.02
566.136	-0.03
566.477	-0.03
566.817	-0.02
567.157	-0.04
567.498	-0.03
567.838	-0.04
568.179	-0.04
568.519	-0.03
568.859	-0.02
569.199	-0
569.539	-0.02
569.879	-0.02
570.219	-0.07
570.559	-0.04
570.899	-0.02
571.239	-0.02
571.579	-0.04
571.919	-0.03
572.259	-0.02
572.598	-0.01
572.938	-0.01
573.278	-0.07
573.617	-0.04
573.957	-0.02
574.296	-0.02
574.635	-0.06
574.975	-0.04
575.314	0.01
575.653	0.01
575.993	-0
576.332	-0.04
576.671	-0.06
577.01	-0.02
577.349	-0.02
577.688	-0.04
578.027	-0.08
578.366	-0.08
578.704	-0.01
579.043	0.03
579.382	0.01
579.721	-0.03
580.059	-0.04
580.398	-0.03
580.736	-0.03
581.075	-0.06
581.413	-0.07
581.752	-0.06
582.09	-0.06
582.428	0.01
582.766	0.01
583.105	0.01
583.443	-0.02
583.781	-0.04
584.119	-0.05
584.457	-0.04
584.795	-0.02
585.133	-0.02
585.47	-0.01
585.808	-0.01
586.146	-0.01
586.484	-0.03
586.821	-0.06
587.159	-0.04
587.496	-0.01
587.834	-0.02
588.171	-0.03
588.509	-0.03
588.846	-0.05
589.183	-0.02
589.521	-0.05
589.858	-0.06
590.195	-0.03
590.532	0.01
590.869	0.01
591.206	-0
591.543	-0.02
591.88	-0.06
592.217	-0.06
592.554	-0.03
592.89	-0
593.227	-0.01
593.564	-0.03
593.9	-0.07
594.237	-0.05
594.573	-0.04
594.91	-0.03
595.246	-0
595.583	-0.04
595.919	-0.07
596.255	-0.02
596.592	0.01
596.928	-0.02
597.264	-0.03
597.6	-0
597.936	0.01
598.272	-0.02
598.608	-0.03
598.944	-0.03
599.279	-0.03
599.615	-0.02
599.951	-0.04
600.287	-0.06
600.622	-0.06
600.958	-0.03
601.293	0.01
601.629	0.01
601.964	-0.02
602.3	-0.06
602.635	-0.04
602.97	-0.03
603.305	-0.01
603.641	-0.02
603.976	-0.01
604.311	-0.05
604.646	-0.03
604.981	0
605.316	0.01
605.651	-0.02
605.986	-0.05
606.32	-0.02
606.655	-0.03
606.99	-0.05
607.324	-0.04
607.659	-0
607.993	-0.01
608.328	-0.06
608.662	-0.03
608.997	-0.02
609.331	-0.02
609.665	-0.03
610	-0.04
610.334	-0.03
610.668	-0.01
611.002	0
611.336	-0.03
611.67	-0.05
612.004	-0.05
612.338	-0.01
612.672	0.03
613.005	0.01
613.339	-0.01
613.673	-0.05
614.006	-0.05
614.34	-0.02
614.674	-0.01
615.007	-0.03
615.341	-0.05
615.674	-0.04
616.007	-0.02
616.341	-0.03
616.674	-0.05
617.007	-0.07
617.34	-0.03
617.673	-0
618.006	0
618.339	-0.03
618.672	-0.07
619.005	-0.09
619.338	-0.05
619.671	0.02
620.003	0.03
620.336	-0.01
620.669	-0.05
621.001	-0.02
621.334	-0.02
621.666	-0.05
621.999	-0.02
622.331	0.01
622.663	-0.03
622.996	-0.03
623.328	-0.02
623.66	-0.02
623.992	-0.04
624.324	-0.03
624.656	-0.02
624.988	0.02
625.32	0
625.652	-0.03
625.984	-0.07
626.316	-0.06
626.647	-0.04
626.979	0.01
627.311	-0
627.642	-0.01
627.974	-0.02
628.305	-0.03
628.637	-0
628.968	-0.01
629.299	-0.01
629.631	-0.06
629.962	-0.05
630.293	-0.02
630.624	-0.01
630.955	-0.03
631.286	-0.06
631.617	-0.03
631.948	0
632.279	-0.02
632.61	-0.01
632.941	-0.02
633.271	-0.08
633.602	-0.04
633.932	-0.01
634.263	0.01
634.594	-0.02
634.924	-0.03
635.254	-0.03
635.585	-0.08
635.915	-0.02
636.245	-0.04
636.576	-0.03
636.906	0.03
637.236	-0.05
637.566	0
637.896	-0.04
638.226	0.01
638.556	-0
638.886	-0.02
639.215	-0.02
639.545	0.01
639.875	-0.01
640.204	-0.06
640.534	-0.09
640.864	-0.05
641.193	-0.01
641.522	-0
641.852	-0.01
642.181	-0.01
642.511	-0.06
642.84	-0.02
643.169	-0.01
643.498	-0.05
643.827	-0.02
644.156	0.01
644.485	-0.01
644.814	-0.03
645.143	-0.08
645.472	-0.07
645.801	-0.02
646.129	0.02
646.458	0.02
646.787	-0
647.115	-0.01
647.444	0.03
647.772	-0.05
648.101	-0.04
648.429	-0.08
648.757	-0.04
649.085	-0.01
649.414	-0.04
649.742	-0.03
650.07	-0.09
650.398	-0.04
650.726	-0.04
651.054	-0.01
651.382	-0.01
651.71	-0.02
652.038	-0.13
652.365	-0.06
652.693	-0.29
653.021	-0.41
653.348	-0.14
653.676	0.1
654.003	0.14
654.331	0.05
654.658	-0.14
654.985	-0.18
655.313	-0.11
655.64	-0.08
655.967	-0.02
656.294	-0.01
656.621	-0.04
656.948	-0.08
657.275	-0.08
657.602	-0.05
657.929	-0.03
658.256	-0.08
658.583	-0.02
658.909	-0.07
659.236	-0.04
659.563	0.02
659.889	-0.04
660.216	0.03
660.542	0.03
660.869	-0.05
661.195	0.03
661.521	0.01
661.847	-0.02
662.174	-0.02
662.5	-0.01
662.826	-0.01
663.152	-0.04
663.478	0.04
663.804	0.03
664.13	-0.03
664.456	-0
664.781	-0.02
665.107	-0.04
665.433	-0.01
665.758	-0.05
666.084	0
666.41	-0
666.735	-0.02
667.06	0
667.386	-0.01
667.711	-0.07
668.036	-0.02
668.362	-0.06
668.687	-0.07
669.012	-0.08
669.337	-0.02
669.662	0
669.987	0.03
670.312	0.04
670.637	-0
670.961	-0.03
671.286	-0.06
671.611	-0.04
671.935	-0.05
672.26	-0.09
672.585	-0.02
672.909	-0.02
673.233	-0.06
673.558	-0
673.882	-0
674.206	-0.03
674.531	-0.04
674.855	-0.05
675.179	-0.05
675.503	-0.06
675.827	0.02
676.151	-0.01
676.475	-0.07
676.799	-0.02
677.123	0
677.446	-0.02
677.77	0.04
678.094	-0.04
678.417	-0.06
678.741	-0.09
679.064	-0.02
679.388	-0.02
679.711	0.04
680.034	-0.04
680.358	-0.01
680.681	-0.06
681.004	-0.09
681.327	-0.04
681.65	-0.05
681.973	-0
682.296	-0.01
682.619	-0.02
682.942	-0.07
683.265	-0
683.587	0.04
683.91	-0.01
684.233	-0.06
684.555	-0.09
684.878	-0.06
685.2	-0.03
685.523	0.01
685.845	-0.01
686.168	-0.04
686.49	-0.05
686.812	-0.08
687.134	-0.05
687.456	-0.01
687.778	0.05
688.1	-0.06
688.422	-0.08
688.744	-0.03
689.066	-0.04
689.388	0.01
689.71	-0
690.031	-0.05
690.353	-0.05
690.675	-0.08
690.996	-0.04
691.318	0.02
691.639	0
691.96	-0.02
692.282	-0.09
692.603	-0.05
692.924	-0.04
693.245	0.07
693.566	0.03
693.887	-0.06
694.208	-0.18
694.529	-0.07
694.85	0.03
695.171	0.06
695.492	0.06
695.813	-0.01
696.133	-0.11
696.454	-0.05
696.775	0.01
697.095	-0.04
697.416	-0.08
697.736	-0.05
698.056	-0.05
698.377	-0.06
698.697	-0.04
699.017	-0.06
699.337	-0.07
699.657	-0.1
699.977	-0.06
700.297	0.02
700.617	0.03
700.937	0.03
701.257	-0.04
701.577	-0.05
701.897	-0.09
702.216	-0.03
702.536	0.01
702.855	-0.01
703.175	-0.04
703.494	-0.09
703.814	-0.15
704.133	-0.1
704.452	-0.05
704.772	0
705.091	0.03
705.41	-0.01
705.729	-0
706.048	-0.03
706.367	-0.01
706.686	-0.06
707.005	-0.02
707.324	-0
707.642	-0.06
707.961	-0.03
708.28	-0.07
708.598	0.06
708.917	0.06
709.235	-0.01
709.554	-0.14
709.872	-0.11
710.191	-0.05
710.509	-0.03
710.827	-0.03
711.145	0.02
711.463	-0.01
711.781	-0.02
712.099	-0.04
712.417	-0.02
712.735	-0.02
713.053	-0.03
713.371	-0
713.689	-0.02
714.006	-0.04
714.324	-0.09
714.642	-0.04
714.959	-0.06
715.277	-0.01
715.594	-0.03
715.911	-0.09
716.229	0.03
716.546	-0.04
716.863	-0.07
717.18	-0.04
717.497	0
717.814	-0.05
718.131	-0.07
718.448	-0.09
718.765	-0.06
719.082	0
719.399	-0.08
719.715	-0.08
720.032	-0.03
720.349	-0.04
720.665	-0.06
720.982	-0.03
721.298	0.01
721.615	-0.01
721.931	-0.05
722.247	0
722.563	-0.06
722.88	-0.04
723.196	0.02
723.512	-0.02
723.828	-0.02
724.144	-0.04
724.46	-0.01
724.775	-0.03
725.091	0.01
725.407	-0.05
725.723	-0.01
726.038	0.02
726.354	-0
726.669	-0.01
726.985	-0.1
727.3	-0.03
727.616	-0.05
727.931	-0.09
728.246	-0.08
728.561	-0.04
728.876	0.01
729.192	0.03
729.507	0.01
729.822	-0.04
730.136	-0.06
730.451	-0.09
730.766	0.01
731.081	-0.03
731.396	-0.05
731.71	-0.05
732.025	-0.01
732.339	0.02
732.654	0
732.968	-0.03
733.283	-0.03
733.597	0
733.911	0.01
734.225	-0.05
734.54	-0.05
734.854	0
735.168	-0.02
735.482	-0.01
735.796	-0.02
736.11	-0.08
736.423	-0.08
736.737	-0.06
737.051	0.02
737.364	0.03
737.678	0
737.992	-0.05
738.305	-0.05
738.619	-0.06
738.932	-0.07
739.245	-0.05
739.559	-0.05
739.872	-0.09
740.185	-0.01
740.498	0.05
740.811	0.07
741.124	-0.01
741.437	-0.01
741.75	-0.1
742.063	-0.12
742.376	-0.06
742.688	-0.05
743.001	-0.01
743.314	-0.05
743.626	0.02
743.939	0.08
744.251	-0.01
744.564	-0.05
744.876	-0.09
745.188	0.08
745.5	0.04
745.813	-0.07
746.125	-0.03
746.437	-0.01
746.749	-0.03
747.061	-0.01
747.373	-0.02
747.684	0
747.996	-0.06
748.308	-0.02
748.62	-0.03
748.931	-0.16
749.243	-0.06
749.554	-0.02
749.866	-0.07
750.177	-0.08
750.489	0
750.8	-0.04
751.111	-0.02
751.422	0.01
751.733	0.02
752.044	-0.02
752.355	-0.08
752.666	-0.13
752.977	-0.1
753.288	-0.1
753.599	-0.11
753.91	-0.03
754.22	-0.02
754.531	-0.04
754.842	-0.02
755.152	0.01
755.463	0.04
755.773	0.03
756.083	0.01
756.394	-0.04
756.704	-0.08
757.014	-0.08
757.324	-0.04
757.634	-0.05
757.944	-0.04
758.254	-0.02
758.564	-0.01
758.874	0.01
759.184	0.03
759.493	-0.03
759.803	-0.03
760.113	-0.04
760.422	-0.08
760.732	-0.04
761.041	-0.03
761.351	-0.03
761.66	-0.04
761.969	-0
762.279	-0.04
762.588	-0.03
762.897	-0.01
763.206	-0.01
763.515	-0.03
763.824	-0.02
764.133	-0.03
764.442	-0
764.75	-0.1
765.059	0.02
765.368	-0.09
765.676	-0.11
765.985	-0.02
766.293	0.04
766.602	0.02
766.91	0
767.219	-0.01
767.527	0.01
767.835	-0.01
768.143	-0.08
768.451	-0.15
768.76	-0.03
769.068	-0.03
769.375	0.03
769.683	-0.04
769.991	0.01
770.299	-0.07
770.607	-0.02
770.914	-0.01
771.222	0.04
771.53	0.01
771.837	0.07
772.144	0.07
772.452	-0.02
772.759	-0.09
773.066	-0.02
773.374	-0.09
773.681	-0.17
773.988	-0.24
774.295	0.04
774.602	-0.09
774.909	-0.41
775.216	-0.1
775.523	0.11
775.829	0.01
776.136	-0.07
776.443	-0.07
776.749	0.15
777.056	0.06
777.362	0.04
777.669	-0.03
777.975	-0.01
778.281	0.04
778.588	-0.15
778.894	-0.11
779.2	0.05
779.506	0.02
779.812	0.04
780.118	-0.03
780.424	-0.02
780.73	-0.08
781.036	-0.01
781.341	-0.13
781.647	0.01
781.953	-0
782.258	0.01
782.564	-0.01
782.869	0.04
783.175	-0.09
783.48	-0.12
783.785	-0.12
784.091	-0.02
784.396	-0.05
784.701	0.13
785.006	0.05
785.311	-0.04
785.616	-0.05
785.921	-0.01
786.226	-0.2
786.53	0
786.835	0.03
787.14	-0.03
787.444	-0.06
787.749	-0.08
788.053	-0.24
788.358	-0
788.662	0.09
788.967	-0.11
789.271	0.07
789.575	0.02
789.879	-0.05
790.183	-0.03
790.487	-0.2
790.791	-0.16
791.095	-0.1
791.399	-0.08
791.703	-0.12
792.007	-0.11
792.31	-0
792.614	-0.01
792.918	-0.02
793.221	-0.06
793.525	-0.14
793.828	-0.02
794.131	-0.03
794.435	-0.14
794.738	-0.29
795.041	-0.13
795.344	0.21
795.647	-0.41
795.95	-0.05
796.253	0.18
796.556	-0.05
796.859	-0.15
797.162	0.16
797.465	-0.03
797.767	-0.2
798.07	-0.01
798.372	0.03
798.675	-0
798.977	0.03
799.28	0.11
799.582	-0.09
799.884	-0
800.186	0.85
800.489	-0.12
800.791	-0
801.093	-1.28
801.395	-0.2
801.697	-0.24
801.999	-0.3
802.3	0.66
802.602	0.29
802.904	-0.04
803.205	0.01
803.507	-0.05
803.809	-0.43
804.11	-0
804.411	-0.02
804.713	0.16
805.014	-0.25
805.315	0.16
805.616	0.13
805.918	-0.35
806.219	-0.29
806.52	0.04
806.821	0.01
807.121	-0.17
807.422	0.14
807.723	-0
808.024	0.2
808.324	-0.42
808.625	-0.45
808.926	-0.18
809.226	-0.1
809.526	-0
809.827	-0.82
810.127	0.09
810.427	-0.15
810.728	-0.87
811.028	-0
811.328	-1
811.628	-0.04
811.928	-0.06
812.228	-0.42
812.527	-0
812.827	0.03
813.127	-0.11
813.427	0.54
813.726	-0.47
814.026	-0.01
814.325	0.16
814.625	-0.35
814.924	-0.89
815.223	-0.04
815.523	-1.05
815.822	-1.25
816.121	0.35
816.42	0.02
816.719	0.07
817.018	-0
817.317	0.39
817.616	0.2
817.915	-0.2
818.214	-0
818.512	0.03
818.811	0
819.109	-0
819.408	0.25
819.706	-0.59
820.005	-0
820.303	0.08
820.601	0.1
820.9	0.24
821.198	-0.44
821.496	-0.11
821.794	-2.19
822.092	-0.3
822.39	-0
822.688	0.28
822.985	-0
823.283	-0
823.581	0.54
823.879	1.06
824.176	0.39
824.474	0.66
824.771	-0
825.068	0.28
825.366	-0.08
825.663	-0
825.96	-0.24
826.257	0.11
826.555	0.16
826.852	-0
827.149	-0.03
827.446	0.18
827.742	0.1
828.039	0.52
828.336	0.09
828.633	-0.13
828.929	-0.2
829.226	-0.97
829.522	0.91
829.819	-0.01
830.115	-0.09
830.412	0.2
830.708	-0
831.004	0.14
831.3	0.43
831.596	0.32
831.892	0.06
832.188	0.94
832.484	0.57
832.78	-0
833.076	0.1
833.372	0.22
833.668	0.24
833.963	-0.12
834.259	-0
834.554	0.39
834.85	0.33
835.145	0.03
835.441	0.52
835.736	0.28
836.031	-0.32
836.326	-0.82
836.621	0.02
836.916	0.26
837.211	0.25
837.506	-0.77
837.801	0.21
838.096	-0.22
838.391	0.15
838.685	-0
838.98	-0
839.275	-1.68
839.569	-0
839.864	0.19
840.158	-0
840.452	-0.05
840.747	-0.01
841.041	0.04
841.335	-0
841.629	-0
841.923	-0.22
842.217	0.56
842.511	-0
842.805	1.47
843.099	0.39
843.393	0.01
843.686	-0.66
843.98	0.66
844.273	-0
844.567	-0
844.86	-0
845.154	0.55
845.447	-0.27
845.74	0.79
846.034	0.1
846.327	0.3
846.62	0.28
846.913	-0
847.206	0.11
847.499	0.27
847.792	0.36
848.084	-0.01
848.377	-0.07
848.67	0.42
848.962	0.53
849.255	-0
849.548	0.67
849.84	0.05
850.132	-0
850.425	-0
850.717	-0
851.009	0.72
851.301	-0
851.593	-0
851.885	-0
852.177	0.37
852.469	0.1
852.761	-0.76
853.053	0.3
853.345	-0.06
853.636	-0
853.928	-0
854.219	-0
854.511	-0.15
854.802	-0
855.094	-0
855.385	-0
855.676	-0.08
855.967	-0
856.259	0.14
856.55	-0.16
856.841	-0
857.132	0.22
857.423	-0.34
857.713	-0.31
858.004	0.21
858.295	0.22
858.585	-0
858.876	-0
859.167	-0.05
859.457	-0.16
859.747	0.97
860.038	-0.47
860.328	0.54
860.618	-0.15
860.909	-0.59
861.199	0.26
861.489	-0.11
861.779	-0.34
862.069	-0
862.358	0.03
862.648	-0.1
862.938	-0.04
863.228	-0.34
863.517	0.05
863.807	-0
864.096	-1.74
864.386	-0
864.675	-0.22
864.965	-0.23
865.254	0.33
865.543	0.1
865.832	-0
866.121	-0.21
866.41	0.33
866.699	-0.05
866.988	-0
867.277	-0.18
867.566	0.43
867.855	0.38
868.143	-0.18
868.432	-0.08
868.72	-0
869.009	0
869.297	-0
869.586	-0.2
869.874	0.25
870.162	0.45
870.45	-0.49
870.739	-1.18
871.027	-0.85
871.315	-0
871.603	-0
871.89	0.09
872.178	0.64
872.466	0.75
872.754	-1.09
873.041	0.14
873.329	0.14
873.616	0.28
873.904	0.08
874.191	-0
874.479	0.81
874.766	-0
875.053	-0
